@    xaxis  label "t"
@    yaxis  label "Rg (nm)"

           0.00          0.4955
          50.00          0.6402
         100.00          0.6175
         150.00          0.7250
         200.00          0.7717
         250.00          0.7916
         300.00          0.7986
         350.00          0.7523
         400.00          0.7265
         450.00          0.6671
         500.00          0.7173
         550.00          0.7152
         600.00          0.7174
         650.00          0.7231
         700.00          0.7716
         750.00          0.7291
         800.00          0.7278
         850.00          0.7423
         900.00          0.7416
         950.00          0.6610
        1000.00          0.6916
        1050.00          0.6335
        1100.00          0.6317
        1150.00          0.5845
        1200.00          0.5728
        1250.00          0.5714
        1300.00          0.5690
        1350.00          0.5477
        1400.00          0.5666
        1450.00          0.6155
        1500.00          0.6824
        1550.00          0.7020
        1600.00          0.6637
        1650.00          0.6184
        1700.00          0.6753
        1750.00          0.6755
        1800.00          0.7268
        1850.00          0.7404
        1900.00          0.7293
        1950.00          0.7096
        2000.00          0.6670
        2050.00          0.7817
        2100.00          0.7449
        2150.00          0.7326
        2200.00          0.7493
        2250.00          0.7646
        2300.00          0.8168
        2350.00          0.7182
        2400.00          0.7518
        2450.00          0.7300
        2500.00          0.7170
        2550.00          0.7186
        2600.00          0.6860
        2650.00          0.7511
        2700.00          0.7677
        2750.00          0.7849
        2800.00          0.7109
        2850.00          0.7602
        2900.00          0.7479
        2950.00          0.7207
        3000.00          0.7400
        3050.00          0.6475
        3100.00          0.6219
        3150.00          0.6387
        3200.00          0.6835
        3250.00          0.7548
        3300.00          0.7422
        3350.00          0.6877
        3400.00          0.7289
        3450.00          0.7151
        3500.00          0.6441
        3550.00          0.6150
        3600.00          0.6050
        3650.00          0.5720
        3700.00          0.5283
        3750.00          0.4860
        3800.00          0.5323
        3850.00          0.5174
        3900.00          0.4712
        3950.00          0.4700
        4000.00          0.5282
        4050.00          0.5976
        4100.00          0.6167
        4150.00          0.6486
        4200.00          0.7134
        4250.00          0.7051
        4300.00          0.7664
        4350.00          0.8378
        4400.00          0.8283
        4450.00          0.7893
        4500.00          0.7500
        4550.00          0.8496
        4600.00          0.7893
        4650.00          0.8574
        4700.00          0.8829
        4750.00          0.8497
        4800.00          0.8689
        4850.00          0.8002
        4900.00          0.7823
        4950.00          0.8643
        5000.00          0.7886
        5000.00          0.7898
        5050.00          0.7749
        5100.00          0.7077
        5150.00          0.7506
        5200.00          0.7510
        5250.00          0.7635
        5300.00          0.7768
        5350.00          0.8467
        5400.00          0.7488
        5450.00          0.8133
        5500.00          0.8580
        5550.00          0.7899
        5600.00          0.7908
        5650.00          0.8294
        5700.00          0.7778
        5750.00          0.7488
        5800.00          0.6719
        5850.00          0.6702
        5900.00          0.6800
        5950.00          0.6078
        6000.00          0.6984
        6050.00          0.6703
        6100.00          0.6452
        6150.00          0.6931
        6200.00          0.6973
        6250.00          0.6793
        6300.00          0.7750
        6350.00          0.7542
        6400.00          0.7870
        6450.00          0.7489
        6500.00          0.7774
        6550.00          0.8099
        6600.00          0.8452
        6650.00          0.7735
        6700.00          0.7399
        6750.00          0.8033
        6800.00          0.7598
        6850.00          0.7952
        6900.00          0.7821
        6950.00          0.8222
        7000.00          0.8287
        7050.00          0.8535
        7100.00          0.8210
        7150.00          0.8237
        7200.00          0.8188
        7250.00          0.8228
        7300.00          0.7858
        7350.00          0.8618
        7400.00          0.8778
        7450.00          0.8795
        7500.00          0.8294
        7550.00          0.7577
        7600.00          0.7628
        7650.00          0.7677
        7700.00          0.8140
        7750.00          0.7469
        7800.00          0.7379
        7850.00          0.6898
        7900.00          0.6600
        7950.00          0.6737
        8000.00          0.7491
        8050.00          0.7665
        8100.00          0.7542
        8150.00          0.6874
        8200.00          0.6966
        8250.00          0.6589
        8300.00          0.6338
        8350.00          0.7010
        8400.00          0.7849
        8450.00          0.7874
        8500.00          0.7364
        8550.00          0.7556
        8600.00          0.7786
        8650.00          0.8978
        8700.00          0.8696
        8750.00          0.8496
        8800.00          0.8939
        8850.00          0.8330
        8900.00          0.8922
        8950.00          0.7739
        9000.00          0.8328
        9050.00          0.7454
        9100.00          0.7595
        9150.00          0.6666
        9200.00          0.6532
        9250.00          0.6461
        9300.00          0.7355
        9350.00          0.7615
        9400.00          0.7516
        9450.00          0.8442
        9500.00          0.8454
        9550.00          0.8267
        9600.00          0.8544
        9650.00          0.8030
        9700.00          0.7816
        9750.00          0.8200
        9800.00          0.8329
        9850.00          0.8102
        9900.00          0.8265
        9950.00          0.8016
       10000.00          0.7975
       10050.00          0.8812
       10100.00          0.8107
       10150.00          0.7866
       10200.00          0.8048
       10250.00          0.8475
       10300.00          0.8234
       10350.00          0.8224
       10400.00          0.8305
       10450.00          0.7273
       10500.00          0.7091
       10550.00          0.7148
       10600.00          0.7148
       10650.00          0.6415
       10700.00          0.6662
       10750.00          0.7008
       10800.00          0.7174
       10850.00          0.6183
       10900.00          0.6302
       10950.00          0.5712
       11000.00          0.5234
       11050.00          0.5364
       11100.00          0.5308
       11150.00          0.5220
       11200.00          0.5071
       11250.00          0.5234
       11300.00          0.5920
       11350.00          0.5367
       11400.00          0.5627
       11450.00          0.5699
       11500.00          0.5241
       11550.00          0.5894
       11600.00          0.6226
       11650.00          0.6243
       11700.00          0.6405
       11750.00          0.6884
       11800.00          0.6803
       11850.00          0.6496
       11900.00          0.7168
       11950.00          0.8140
       12000.00          0.7782
       12050.00          0.7999
       12100.00          0.7929
       12150.00          0.7784
       12200.00          0.7562
       12250.00          0.7634
       12300.00          0.7197
       12350.00          0.7047
       12400.00          0.6639
       12450.00          0.7017
       12500.00          0.6401
       12550.00          0.6907
       12600.00          0.7476
       12650.00          0.7603
       12700.00          0.8097
       12750.00          0.8016
       12800.00          0.7510
       12850.00          0.6990
       12900.00          0.6495
       12950.00          0.7111
       13000.00          0.7739
       13050.00          0.7103
       13100.00          0.6798
       13150.00          0.6957
       13200.00          0.6931
       13250.00          0.7379
       13300.00          0.7505
       13350.00          0.7573
       13400.00          0.7546
       13450.00          0.7902
       13500.00          0.7317
       13550.00          0.6838
       13600.00          0.7068
       13650.00          0.7408
       13700.00          0.6887
       13750.00          0.6929
       13800.00          0.6402
       13850.00          0.6847
       13900.00          0.7542
       13950.00          0.8395
       14000.00          0.7877
       14050.00          0.7997
       14100.00          0.7702
       14150.00          0.7426
       14200.00          0.7306
       14250.00          0.6804
       14300.00          0.6785
       14350.00          0.6888
       14400.00          0.7138
       14450.00          0.6939
       14500.00          0.6924
       14550.00          0.6605
       14600.00          0.6680
       14650.00          0.7165
       14700.00          0.7910
       14750.00          0.7764
       14800.00          0.7475
       14850.00          0.7393
       14900.00          0.6794
       14950.00          0.7194
       15000.00          0.6937
       15050.00          0.7116
       15100.00          0.7283
       15150.00          0.7313
       15200.00          0.6903
       15250.00          0.6610
       15300.00          0.6152
       15350.00          0.6629
       15400.00          0.6839
       15450.00          0.6682
       15500.00          0.7894
       15550.00          0.7216
       15600.00          0.7094
       15650.00          0.7286
       15700.00          0.7394
       15750.00          0.7071
       15800.00          0.6688
       15850.00          0.7275
       15900.00          0.7430
       15950.00          0.6929
       16000.00          0.6713
       16050.00          0.6386
       16100.00          0.6294
       16150.00          0.6012
       16200.00          0.6416
       16250.00          0.6464
       16300.00          0.6015
       16350.00          0.5999
       16400.00          0.6606
       16450.00          0.7204
       16500.00          0.7620
       16550.00          0.7611
       16600.00          0.7547
       16650.00          0.7672
       16700.00          0.7455
       16750.00          0.7305
       16800.00          0.6270
       16850.00          0.5991
       16900.00          0.5901
       16950.00          0.5777
       17000.00          0.6206
       17050.00          0.6546
       17100.00          0.6854
       17150.00          0.7960
       17200.00          0.7892
       17250.00          0.7897
       17300.00          0.7631
       17350.00          0.7461
       17400.00          0.7826
       17450.00          0.6949
       17500.00          0.6835
       17550.00          0.7125
       17600.00          0.6925
       17650.00          0.7141
       17700.00          0.7737
       17750.00          0.7868
       17800.00          0.7641
       17850.00          0.7243
       17900.00          0.7940
       17950.00          0.8293
       18000.00          0.7577
       18050.00          0.7227
       18100.00          0.7156
       18150.00          0.6888
       18200.00          0.6632
       18250.00          0.6510
       18300.00          0.6615
       18350.00          0.7392
       18400.00          0.7308
       18450.00          0.7103
       18500.00          0.7431
       18550.00          0.7110
       18600.00          0.7012
       18650.00          0.7497
       18700.00          0.8448
       18750.00          0.7445
       18800.00          0.7736
       18850.00          0.7538
       18900.00          0.7163
       18950.00          0.7268
       19000.00          0.6654
       19050.00          0.6043
       19100.00          0.5535
       19150.00          0.5526
       19200.00          0.5437
       19250.00          0.5433
       19300.00          0.5868
       19350.00          0.6488
       19400.00          0.6382
       19450.00          0.6711
       19500.00          0.6841
       19550.00          0.6027
       19600.00          0.6993
       19650.00          0.5838
       19700.00          0.5823
       19750.00          0.6032
       19800.00          0.5879
       19850.00          0.6442
       19900.00          0.7329
       19950.00          0.7833
       20000.00          0.7744
       20050.00          0.8638
       20100.00          0.9080
       20150.00          0.8464
       20200.00          0.8300
       20250.00          0.8812
       20300.00          0.9091
       20350.00          0.8829
       20400.00          0.8755
       20450.00          0.8784
       20500.00          0.8419
       20550.00          0.7492
       20600.00          0.7574
       20650.00          0.7135
       20700.00          0.7073
       20750.00          0.7107
       20800.00          0.7118
       20850.00          0.6900
       20900.00          0.7485
       20950.00          0.7653
       21000.00          0.7065
       21050.00          0.6916
       21100.00          0.6993
       21150.00          0.7936
       21200.00          0.7562
       21250.00          0.7317
       21300.00          0.7892
       21350.00          0.7361
       21400.00          0.7358
       21450.00          0.7526
       21500.00          0.7664
       21550.00          0.7522
       21600.00          0.7929
       21650.00          0.7891
       21700.00          0.8154
       21750.00          0.8854
       21800.00          0.8693
       21850.00          0.8992
       21900.00          0.8852
       21950.00          0.8849
       22000.00          0.8683
       22050.00          0.8432
       22100.00          0.8163
       22150.00          0.7614
       22200.00          0.7221
       22250.00          0.7206
       22300.00          0.6857
       22350.00          0.6227
       22400.00          0.6123
       22450.00          0.6445
       22500.00          0.7378
       22550.00          0.6888
       22600.00          0.7182
       22650.00          0.6754
       22700.00          0.6340
       22750.00          0.6769
       22800.00          0.6075
       22850.00          0.6562
       22900.00          0.6416
       22950.00          0.6307
       23000.00          0.6485
       23050.00          0.6158
       23100.00          0.6019
       23150.00          0.6971
       23200.00          0.7027
       23250.00          0.6901
       23300.00          0.6217
       23350.00          0.7050
       23400.00          0.7669
       23450.00          0.8011
       23500.00          0.8218
       23550.00          0.6931
       23600.00          0.7649
       23650.00          0.7952
       23700.00          0.7580
       23750.00          0.6665
       23800.00          0.7433
       23850.00          0.6862
       23900.00          0.7004
       23950.00          0.6512
       24000.00          0.7019
       24050.00          0.6987
       24100.00          0.7163
       24150.00          0.6958
       24200.00          0.7282
       24250.00          0.6713
       24300.00          0.7109
       24350.00          0.7640
       24400.00          0.7718
       24450.00          0.8637
       24500.00          0.8470
       24550.00          0.7900
       24600.00          0.7526
       24650.00          0.7429
       24700.00          0.6988
       24750.00          0.6581
       24800.00          0.5845
       24850.00          0.6804
       24900.00          0.7625
       24950.00          0.7626
       25000.00          0.7282
       25000.00          0.7770
       25050.00          0.7839
       25100.00          0.7010
       25150.00          0.7540
       25200.00          0.6790
       25250.00          0.7280
       25300.00          0.7147
       25350.00          0.6854
       25400.00          0.7164
       25450.00          0.7036
       25500.00          0.7934
       25550.00          0.8498
       25600.00          0.8111
       25650.00          0.7838
       25700.00          0.7755
       25750.00          0.7657
       25800.00          0.7696
       25850.00          0.7520
       25900.00          0.6383
       25950.00          0.7115
       26000.00          0.6853
       26050.00          0.7258
       26100.00          0.7976
       26150.00          0.8552
       26200.00          0.8177
       26250.00          0.7856
       26300.00          0.8101
       26350.00          0.6686
       26400.00          0.7382
       26450.00          0.8139
       26500.00          0.7482
       26550.00          0.7183
       26600.00          0.7159
       26650.00          0.7577
       26700.00          0.7653
       26750.00          0.7560
       26800.00          0.6686
       26850.00          0.5779
       26900.00          0.6092
       26950.00          0.6723
       27000.00          0.6864
       27050.00          0.6924
       27100.00          0.7405
       27150.00          0.7495
       27200.00          0.7583
       27250.00          0.7781
       27300.00          0.8563
       27350.00          0.9156
       27400.00          0.7984
       27450.00          0.8675
       27500.00          0.8119
       27550.00          0.7989
       27600.00          0.8138
       27650.00          0.7851
       27700.00          0.7529
       27750.00          0.7370
       27800.00          0.6973
       27850.00          0.7147
       27900.00          0.6983
       27950.00          0.7191
       28000.00          0.6851
       28050.00          0.7048
       28100.00          0.7361
       28150.00          0.7472
       28200.00          0.6761
       28250.00          0.7369
       28300.00          0.7089
       28350.00          0.7016
       28400.00          0.6452
       28450.00          0.6121
       28500.00          0.6115
       28550.00          0.6390
       28600.00          0.6276
       28650.00          0.5826
       28700.00          0.5489
       28750.00          0.5607
       28800.00          0.5598
       28850.00          0.5613
       28900.00          0.5809
       28950.00          0.6255
       29000.00          0.6330
       29050.00          0.7032
       29100.00          0.5797
       29150.00          0.6003
       29200.00          0.5636
       29250.00          0.5406
       29300.00          0.5396
       29350.00          0.6115
       29400.00          0.5939
       29450.00          0.5194
       29500.00          0.5226
       29550.00          0.4876
       29600.00          0.5385
       29650.00          0.5924
       29700.00          0.6506
       29750.00          0.6706
       29800.00          0.7163
       29850.00          0.7254
       29900.00          0.7501
       29950.00          0.7848
       30000.00          0.7658
       30050.00          0.8156
       30100.00          0.8607
       30150.00          0.8691
       30200.00          0.8539
       30250.00          0.8043
       30300.00          0.8022
       30350.00          0.7893
       30400.00          0.8633
       30450.00          0.9004
       30500.00          0.8692
       30550.00          0.8427
       30600.00          0.8661
       30650.00          0.8920
       30700.00          0.9353
       30750.00          0.8949
       30800.00          0.8853
       30850.00          0.8319
       30900.00          0.8563
       30950.00          0.8842
       31000.00          0.9355
