@    xaxis  label "t"
@    yaxis  label "RMSD (nm)"
           0.00          0.0003          0.4517 
          50.00          0.0965          0.4678 
         100.00          0.1110          0.4673 
         150.00          0.1029          0.4740 
         200.00          0.0904          0.4500 
         250.00          0.1309          0.4649 
         300.00          0.1386          0.4396 
         350.00          0.0767          0.4497 
         400.00          0.1221          0.4567 
         450.00          0.1644          0.4197 
         500.00          0.1576          0.4267 
         550.00          0.1443          0.4487 
         600.00          0.1373          0.4498 
         650.00          0.1537          0.4466 
         700.00          0.1376          0.4580 
         750.00          0.1005          0.4609 
         800.00          0.1346          0.4412 
         850.00          0.1375          0.4516 
         900.00          0.1293          0.4704 
         950.00          0.0852          0.4601 
        1000.00          0.1117          0.4377 
        1050.00          0.1697          0.4214 
        1100.00          0.1781          0.4144 
        1150.00          0.2017          0.3929 
        1200.00          0.1948          0.4017 
        1250.00          0.1652          0.4181 
        1300.00          0.1396          0.4199 
        1350.00          0.1442          0.4148 
        1400.00          0.1289          0.4246 
        1450.00          0.1289          0.4247 
        1500.00          0.1452          0.4240 
        1550.00          0.1370          0.4178 
        1600.00          0.0905          0.4480 
        1650.00          0.0415          0.4375 
        1700.00          0.1354          0.4366 
        1750.00          0.0591          0.4387 
        1800.00          0.1062          0.4377 
        1850.00          0.0858          0.4218 
        1900.00          0.0496          0.4431 
        1950.00          0.1177          0.4299 
        2000.00          0.1136          0.4304 
        2050.00          0.1379          0.4172 
        2100.00          0.1200          0.4216 
        2150.00          0.0551          0.4344 
        2200.00          0.0884          0.4485 
        2250.00          0.0989          0.4329 
        2300.00          0.0926          0.4360 
        2350.00          0.0793          0.4515 
        2400.00          0.1192          0.4201 
        2450.00          0.0454          0.4496 
        2500.00          0.0579          0.4442 
        2550.00          0.0466          0.4371 
        2600.00          0.0779          0.4403 
        2650.00          0.0516          0.4533 
        2700.00          0.0570          0.4471 
        2750.00          0.0999          0.4488 
        2800.00          0.1491          0.4198 
        2850.00          0.1220          0.4286 
        2900.00          0.0755          0.4453 
        2950.00          0.0527          0.4549 
        3000.00          0.0971          0.4222 
        3050.00          0.0970          0.4374 
        3100.00          0.1118          0.4376 
        3150.00          0.0584          0.4444 
        3200.00          0.0603          0.4507 
        3250.00          0.0891          0.4392 
        3300.00          0.0649          0.4528 
        3350.00          0.0718          0.4531 
        3400.00          0.0618          0.4354 
        3450.00          0.0892          0.4429 
        3500.00          0.0691          0.4419 
        3550.00          0.0698          0.4368 
        3600.00          0.0909          0.4439 
        3650.00          0.0829          0.4378 
        3700.00          0.0473          0.4467 
        3750.00          0.0341          0.4493 
        3800.00          0.0842          0.4450 
        3850.00          0.0601          0.4335 
        3900.00          0.0818          0.4392 
        3950.00          0.0855          0.4420 
        4000.00          0.0652          0.4441 
        4050.00          0.1031          0.4294 
        4100.00          0.1217          0.4336 
        4150.00          0.1118          0.4228 
        4200.00          0.1114          0.4285 
        4250.00          0.0691          0.4279 
        4300.00          0.0696          0.4231 
        4350.00          0.0453          0.4426 
        4400.00          0.0757          0.4357 
        4450.00          0.0722          0.4502 
        4500.00          0.0511          0.4493 
        4550.00          0.0550          0.4447 
        4600.00          0.0376          0.4460 
        4650.00          0.0615          0.4372 
        4700.00          0.0734          0.4332 
        4750.00          0.0554          0.4375 
        4800.00          0.0902          0.4323 
        4850.00          0.0610          0.4465 
        4900.00          0.0695          0.4429 
        4950.00          0.0770          0.4518 
        5000.00          0.0526          0.4542 
        5050.00          0.0478          0.4476 
        5100.00          0.0662          0.4360 
        5150.00          0.1168          0.4148 
        5200.00          0.0855          0.4390 
        5250.00          0.0850          0.4471 
        5300.00          0.0547          0.4496 
        5350.00          0.0249          0.4386 
        5400.00          0.0744          0.4505 
        5450.00          0.0588          0.4434 
        5500.00          0.0905          0.4379 
        5550.00          0.1203          0.4300 
        5600.00          0.0741          0.4467 
        5650.00          0.0707          0.4422 
        5700.00          0.0847          0.4285 
        5750.00          0.0810          0.4335 
        5800.00          0.0478          0.4536 
        5850.00          0.0630          0.4604 
        5900.00          0.0434          0.4391 
        5950.00          0.0535          0.4381 
        6000.00          0.0694          0.4290 
        6050.00          0.0669          0.4465 
        6100.00          0.0765          0.4357 
        6150.00          0.0819          0.4361 
        6200.00          0.0763          0.4337 
        6250.00          0.0632          0.4384 
        6300.00          0.0737          0.4410 
        6350.00          0.0437          0.4413 
        6400.00          0.0709          0.4492 
        6450.00          0.1073          0.4327 
        6500.00          0.0360          0.4585 
        6550.00          0.0480          0.4482 
        6600.00          0.0444          0.4451 
        6650.00          0.0901          0.4360 
        6700.00          0.0612          0.4372 
        6750.00          0.0761          0.4391 
        6800.00          0.0509          0.4327 
        6850.00          0.0620          0.4544 
        6900.00          0.0613          0.4349 
        6950.00          0.0671          0.4459 
        7000.00          0.1081          0.4414 
        7050.00          0.1033          0.4346 
        7100.00          0.0817          0.4406 
        7150.00          0.0690          0.4467 
        7200.00          0.0553          0.4389 
        7250.00          0.0334          0.4439 
        7300.00          0.0558          0.4348 
        7350.00          0.0749          0.4375 
        7400.00          0.0348          0.4466 
        7450.00          0.1011          0.4430 
        7500.00          0.1060          0.4299 
        7550.00          0.0578          0.4520 
        7600.00          0.0713          0.4394 
        7650.00          0.0619          0.4488 
        7700.00          0.0886          0.4313 
        7750.00          0.0726          0.4381 
        7800.00          0.0680          0.4395 
        7850.00          0.1235          0.4252 
        7900.00          0.1140          0.4363 
        7950.00          0.1179          0.4313 
        8000.00          0.0619          0.4448 
        8050.00          0.0435          0.4403 
        8100.00          0.0660          0.4463 
        8150.00          0.0936          0.4385 
        8200.00          0.0705          0.4447 
        8250.00          0.0695          0.4362 
        8300.00          0.1066          0.4374 
        8350.00          0.0783          0.4406 
        8400.00          0.0777          0.4439 
        8450.00          0.0463          0.4536 
        8500.00          0.0719          0.4395 
        8550.00          0.0448          0.4474 
        8600.00          0.0407          0.4488 
        8650.00          0.0337          0.4428 
        8700.00          0.0482          0.4568 
        8750.00          0.0473          0.4532 
        8800.00          0.1181          0.4283 
        8850.00          0.0612          0.4442 
        8900.00          0.0729          0.4503 
        8950.00          0.0627          0.4343 
        9000.00          0.0741          0.4487 
        9050.00          0.0498          0.4607 
        9100.00          0.0593          0.4430 
        9150.00          0.0548          0.4429 
        9200.00          0.1203          0.4315 
        9250.00          0.0865          0.4452 
        9300.00          0.0525          0.4530 
        9350.00          0.0490          0.4436 
        9400.00          0.0536          0.4497 
        9450.00          0.0470          0.4470 
        9500.00          0.0742          0.4386 
        9550.00          0.0538          0.4428 
        9600.00          0.0578          0.4510 
        9650.00          0.0564          0.4389 
        9700.00          0.0856          0.4465 
        9750.00          0.0547          0.4343 
        9800.00          0.0653          0.4519 
        9850.00          0.0595          0.4555 
        9900.00          0.0312          0.4501 
        9950.00          0.0593          0.4570 
       10000.00          0.0532          0.4458 
       10050.00          0.0868          0.4373 
       10100.00          0.0782          0.4470 
       10150.00          0.0697          0.4367 
       10200.00          0.0679          0.4331 
       10250.00          0.0597          0.4479 
       10300.00          0.0522          0.4487 
       10350.00          0.0510          0.4503 
       10400.00          0.0893          0.4524 
       10450.00          0.0731          0.4488 
       10500.00          0.0661          0.4412 
       10550.00          0.0400          0.4594 
       10600.00          0.0538          0.4411 
       10650.00          0.0488          0.4448 
       10700.00          0.0824          0.4471 
       10750.00          0.0704          0.4536 
       10800.00          0.0612          0.4479 
       10850.00          0.0851          0.4425 
       10900.00          0.0682          0.4468 
       10950.00          0.0455          0.4462 
       11000.00          0.0509          0.4439 
       11050.00          0.0725          0.4452 
       11100.00          0.0854          0.4533 
       11150.00          0.0477          0.4393 
       11200.00          0.0597          0.4557 
       11250.00          0.0669          0.4396 
       11300.00          0.0702          0.4464 
       11350.00          0.0834          0.4294 
       11400.00          0.1050          0.4221 
       11450.00          0.1021          0.4299 
       11500.00          0.0884          0.4405 
       11550.00          0.1329          0.4251 
       11600.00          0.1072          0.4380 
       11650.00          0.0842          0.4378 
       11700.00          0.1168          0.4248 
       11750.00          0.0817          0.4199 
       11800.00          0.0883          0.4338 
       11850.00          0.0741          0.4425 
       11900.00          0.0588          0.4473 
       11950.00          0.0895          0.4361 
       12000.00          0.0463          0.4471 
       12050.00          0.0539          0.4399 
       12100.00          0.1086          0.4242 
       12150.00          0.0963          0.4513 
       12200.00          0.0781          0.4440 
       12250.00          0.0586          0.4367 
       12300.00          0.0755          0.4492 
       12350.00          0.0846          0.4448 
       12400.00          0.0676          0.4335 
       12450.00          0.0386          0.4405 
       12500.00          0.0648          0.4466 
       12550.00          0.0538          0.4479 
       12600.00          0.0681          0.4492 
       12650.00          0.0711          0.4368 
       12700.00          0.0755          0.4409 
       12750.00          0.0992          0.4313 
       12800.00          0.0771          0.4361 
       12850.00          0.0929          0.4448 
       12900.00          0.0895          0.4541 
       12950.00          0.0735          0.4469 
       13000.00          0.0665          0.4389 
       13050.00          0.1190          0.4170 
       13100.00          0.0645          0.4406 
       13150.00          0.0915          0.4512 
       13200.00          0.0674          0.4469 
       13250.00          0.1280          0.4197 
       13300.00          0.0770          0.4525 
       13350.00          0.0775          0.4455 
       13400.00          0.0454          0.4483 
       13450.00          0.0617          0.4374 
       13500.00          0.0435          0.4522 
       13550.00          0.0651          0.4466 
       13600.00          0.0645          0.4404 
       13650.00          0.1015          0.4397 
       13700.00          0.0608          0.4501 
       13750.00          0.0728          0.4340 
       13800.00          0.0575          0.4359 
       13850.00          0.1122          0.4218 
       13900.00          0.0826          0.4447 
       13950.00          0.1007          0.4365 
       14000.00          0.0927          0.4463 
       14050.00          0.0893          0.4479 
       14100.00          0.0952          0.4485 
       14150.00          0.0713          0.4570 
       14200.00          0.0689          0.4362 
       14250.00          0.0448          0.4540 
       14300.00          0.0595          0.4311 
       14350.00          0.0672          0.4381 
       14400.00          0.0385          0.4505 
       14450.00          0.0832          0.4410 
       14500.00          0.0442          0.4757 
       14550.00          0.0562          0.4488 
       14600.00          0.0777          0.4406 
       14650.00          0.0432          0.4468 
       14700.00          0.0678          0.4377 
       14750.00          0.0688          0.4311 
       14800.00          0.0603          0.4351 
       14850.00          0.0527          0.4410 
       14900.00          0.0917          0.4411 
       14950.00          0.0639          0.4382 
       15000.00          0.0852          0.4551 
       15050.00          0.0622          0.4577 
       15100.00          0.0676          0.4485 
       15150.00          0.0741          0.4411 
       15200.00          0.0298          0.4503 
       15250.00          0.0444          0.4480 
       15300.00          0.0699          0.4336 
       15350.00          0.0832          0.4522 
       15400.00          0.0706          0.4237 
       15450.00          0.0538          0.4432 
       15500.00          0.0588          0.4279 
       15550.00          0.0774          0.4290 
       15600.00          0.0831          0.4416 
       15650.00          0.0578          0.4318 
       15700.00          0.0999          0.4349 
       15750.00          0.0573          0.4403 
       15800.00          0.0637          0.4376 
       15850.00          0.0581          0.4436 
       15900.00          0.1097          0.4277 
       15950.00          0.1719          0.3943 
       16000.00          0.0474          0.4474 
       16050.00          0.0444          0.4531 
       16100.00          0.0745          0.4441 
       16150.00          0.0647          0.4579 
       16200.00          0.0563          0.4556 
       16250.00          0.0505          0.4601 
       16300.00          0.0643          0.4422 
       16350.00          0.0920          0.4382 
       16400.00          0.0586          0.4540 
       16450.00          0.0678          0.4457 
       16500.00          0.0768          0.4553 
       16550.00          0.1323          0.4178 
       16600.00          0.1267          0.4203 
       16650.00          0.1297          0.4274 
       16700.00          0.0989          0.4385 
       16750.00          0.0437          0.4370 
       16800.00          0.0830          0.4419 
       16850.00          0.0637          0.4483 
       16900.00          0.0728          0.4454 
       16950.00          0.0489          0.4573 
       17000.00          0.0621          0.4440 
       17050.00          0.1041          0.4449 
       17100.00          0.0779          0.4408 
       17150.00          0.0588          0.4307 
       17200.00          0.0625          0.4590 
       17250.00          0.0659          0.4420 
       17300.00          0.0763          0.4419 
       17350.00          0.0605          0.4427 
       17400.00          0.0723          0.4373 
       17450.00          0.0676          0.4411 
       17500.00          0.0868          0.4518 
       17550.00          0.0676          0.4492 
       17600.00          0.0401          0.4435 
       17650.00          0.0820          0.4445 
       17700.00          0.0704          0.4368 
       17750.00          0.0841          0.4454 
       17800.00          0.0784          0.4369 
       17850.00          0.0346          0.4428 
       17900.00          0.0507          0.4471 
       17950.00          0.0730          0.4425 
       18000.00          0.0309          0.4538 
       18050.00          0.0743          0.4426 
       18100.00          0.0789          0.4292 
       18150.00          0.0764          0.4395 
       18200.00          0.0533          0.4490 
       18250.00          0.0627          0.4451 
       18300.00          0.0545          0.4463 
       18350.00          0.0564          0.4483 
       18400.00          0.0732          0.4478 
       18450.00          0.0396          0.4446 
       18500.00          0.0600          0.4524 
       18550.00          0.0513          0.4530 
       18600.00          0.0464          0.4416 
       18650.00          0.0735          0.4347 
       18700.00          0.0759          0.4356 
       18750.00          0.0945          0.4342 
       18800.00          0.0317          0.4474 
       18850.00          0.0485          0.4439 
       18900.00          0.0602          0.4462 
       18950.00          0.0832          0.4485 
       19000.00          0.0929          0.4326 
       19050.00          0.0689          0.4337 
       19100.00          0.0841          0.4426 
       19150.00          0.1272          0.4228 
       19200.00          0.1440          0.4157 
       19250.00          0.1276          0.4232 
       19300.00          0.1175          0.4312 
       19350.00          0.0949          0.4344 
       19400.00          0.0983          0.4397 
       19450.00          0.0683          0.4497 
       19500.00          0.0770          0.4417 
       19550.00          0.0601          0.4520 
       19600.00          0.0397          0.4606 
       19650.00          0.0403          0.4369 
       19700.00          0.0505          0.4486 
       19750.00          0.0846          0.4440 
       19800.00          0.0911          0.4364 
       19850.00          0.0634          0.4481 
       19900.00          0.0525          0.4384 
       19950.00          0.0898          0.4356 
       20000.00          0.0516          0.4525 
       20050.00          0.0501          0.4556 
       20100.00          0.0581          0.4486 
       20150.00          0.0859          0.4436 
       20200.00          0.0947          0.4361 
       20250.00          0.0575          0.4455 
       20300.00          0.0579          0.4431 
