@    xaxis  label "t"
@    yaxis  label "RMSD (nm)"
           0.00          0.0002          0.4517 
          50.00          0.0911          0.4613 
         100.00          0.2061          0.4278 
         150.00          0.1557          0.4582 
         200.00          0.1402          0.4456 
         250.00          0.0937          0.4424 
         300.00          0.0828          0.4604 
         350.00          0.0747          0.4451 
         400.00          0.1093          0.4465 
         450.00          0.1136          0.4449 
         500.00          0.1151          0.4693 
         550.00          0.1342          0.4548 
         600.00          0.1717          0.4441 
         650.00          0.1305          0.4477 
         700.00          0.1259          0.4501 
         750.00          0.1725          0.4299 
         800.00          0.1688          0.4135 
         850.00          0.1148          0.4393 
         900.00          0.0561          0.4554 
         950.00          0.0596          0.4774 
        1000.00          0.0874          0.4661 
        1050.00          0.0755          0.4796 
        1100.00          0.0571          0.4555 
        1150.00          0.0936          0.4455 
        1200.00          0.0924          0.4461 
        1250.00          0.1721          0.4124 
        1300.00          0.1551          0.4224 
        1350.00          0.1060          0.4415 
        1400.00          0.1628          0.4168 
        1450.00          0.1151          0.4237 
        1500.00          0.0659          0.4512 
        1550.00          0.0513          0.4381 
        1600.00          0.1040          0.4333 
        1650.00          0.0934          0.4271 
        1700.00          0.1642          0.4064 
        1750.00          0.0986          0.4379 
        1800.00          0.0430          0.4556 
        1850.00          0.0733          0.4478 
        1900.00          0.0465          0.4446 
        1950.00          0.0616          0.4369 
        2000.00          0.0743          0.4411 
        2050.00          0.1255          0.4298 
        2100.00          0.0883          0.4309 
        2150.00          0.0743          0.4277 
        2200.00          0.1077          0.4349 
        2250.00          0.0652          0.4444 
        2300.00          0.0766          0.4415 
        2350.00          0.0767          0.4493 
        2400.00          0.0617          0.4400 
        2450.00          0.0661          0.4374 
        2500.00          0.0371          0.4509 
        2550.00          0.0458          0.4526 
        2600.00          0.0553          0.4443 
        2650.00          0.0522          0.4517 
        2700.00          0.0497          0.4406 
        2750.00          0.0338          0.4523 
        2800.00          0.0516          0.4448 
        2850.00          0.0580          0.4510 
        2900.00          0.0739          0.4463 
        2950.00          0.0701          0.4357 
        3000.00          0.0424          0.4438 
        3050.00          0.0677          0.4332 
        3100.00          0.0563          0.4353 
        3150.00          0.0454          0.4436 
        3200.00          0.0416          0.4463 
        3250.00          0.0656          0.4463 
        3300.00          0.0670          0.4410 
        3350.00          0.0692          0.4433 
        3400.00          0.0919          0.4323 
        3450.00          0.1283          0.4241 
        3500.00          0.1364          0.4201 
        3550.00          0.0780          0.4418 
        3600.00          0.0589          0.4367 
        3650.00          0.0659          0.4490 
        3700.00          0.0458          0.4452 
        3750.00          0.1162          0.4145 
        3800.00          0.0798          0.4378 
        3850.00          0.0970          0.4307 
        3900.00          0.0665          0.4384 
        3950.00          0.0731          0.4411 
        4000.00          0.0654          0.4417 
        4050.00          0.0793          0.4504 
        4100.00          0.0701          0.4386 
        4150.00          0.0772          0.4373 
        4200.00          0.0999          0.4347 
        4250.00          0.0916          0.4491 
        4300.00          0.0584          0.4455 
        4350.00          0.0693          0.4480 
        4400.00          0.0648          0.4379 
        4450.00          0.0347          0.4465 
        4500.00          0.0504          0.4359 
        4550.00          0.0676          0.4453 
        4600.00          0.0860          0.4519 
        4650.00          0.0826          0.4262 
        4700.00          0.0618          0.4504 
        4750.00          0.0411          0.4575 
        4800.00          0.0613          0.4493 
        4850.00          0.0391          0.4551 
        4900.00          0.0842          0.4386 
        4950.00          0.0728          0.4475 
        5000.00          0.0922          0.4295 
        5050.00          0.0807          0.4378 
        5100.00          0.0791          0.4503 
        5150.00          0.0592          0.4372 
        5200.00          0.0588          0.4393 
        5250.00          0.0661          0.4544 
        5300.00          0.0538          0.4424 
        5350.00          0.1013          0.4284 
        5400.00          0.0792          0.4358 
        5450.00          0.0647          0.4591 
        5500.00          0.0632          0.4478 
        5550.00          0.0492          0.4462 
        5600.00          0.0694          0.4435 
        5650.00          0.0642          0.4298 
        5700.00          0.0662          0.4417 
        5750.00          0.0873          0.4437 
        5800.00          0.0841          0.4300 
        5850.00          0.0749          0.4396 
        5900.00          0.0557          0.4477 
        5950.00          0.0368          0.4378 
        6000.00          0.0657          0.4504 
        6050.00          0.0661          0.4445 
        6100.00          0.0486          0.4507 
        6150.00          0.0946          0.4324 
        6200.00          0.0489          0.4432 
        6250.00          0.0473          0.4332 
        6300.00          0.0298          0.4558 
        6350.00          0.0691          0.4432 
        6400.00          0.0562          0.4495 
        6450.00          0.0660          0.4462 
        6500.00          0.0734          0.4443 
        6550.00          0.0638          0.4306 
        6600.00          0.0665          0.4425 
        6650.00          0.0580          0.4502 
        6700.00          0.0812          0.4366 
        6750.00          0.0659          0.4390 
        6800.00          0.0595          0.4468 
        6850.00          0.0319          0.4509 
        6900.00          0.0762          0.4433 
        6950.00          0.0663          0.4503 
        7000.00          0.0573          0.4358 
        7050.00          0.0569          0.4449 
        7100.00          0.0608          0.4537 
        7150.00          0.0686          0.4475 
        7200.00          0.0861          0.4361 
        7250.00          0.1453          0.4175 
        7300.00          0.1050          0.4325 
        7350.00          0.0756          0.4392 
        7400.00          0.0268          0.4544 
        7450.00          0.0672          0.4348 
        7500.00          0.0657          0.4383 
        7550.00          0.0630          0.4374 
        7600.00          0.0754          0.4310 
        7650.00          0.1234          0.4316 
        7700.00          0.0580          0.4333 
        7750.00          0.0688          0.4453 
        7800.00          0.0862          0.4343 
        7850.00          0.1123          0.4327 
        7900.00          0.0394          0.4519 
        7950.00          0.0658          0.4470 
        8000.00          0.0358          0.4491 
        8050.00          0.0436          0.4392 
        8100.00          0.1263          0.4295 
        8150.00          0.1273          0.4318 
        8200.00          0.1135          0.4248 
        8250.00          0.0896          0.4438 
        8300.00          0.1018          0.4350 
        8350.00          0.0689          0.4499 
        8400.00          0.0582          0.4438 
        8450.00          0.0356          0.4433 
        8500.00          0.1030          0.4322 
        8550.00          0.0803          0.4424 
        8600.00          0.0628          0.4386 
        8650.00          0.0675          0.4313 
        8700.00          0.0951          0.4392 
        8750.00          0.1319          0.4277 
        8800.00          0.1321          0.4229 
        8850.00          0.0603          0.4605 
        8900.00          0.0865          0.4523 
        8950.00          0.0791          0.4345 
        9000.00          0.0989          0.4475 
        9050.00          0.1150          0.4341 
        9100.00          0.0906          0.4368 
        9150.00          0.0648          0.4490 
        9200.00          0.0479          0.4407 
        9250.00          0.0320          0.4462 
        9300.00          0.0434          0.4453 
        9350.00          0.0665          0.4475 
        9400.00          0.0514          0.4399 
        9450.00          0.0470          0.4451 
        9500.00          0.0761          0.4400 
        9550.00          0.0972          0.4315 
        9600.00          0.1165          0.4198 
        9650.00          0.0695          0.4339 
        9700.00          0.1065          0.4331 
        9750.00          0.0427          0.4449 
        9800.00          0.0695          0.4381 
        9850.00          0.0862          0.4322 
        9900.00          0.0684          0.4467 
        9950.00          0.0958          0.4397 
       10000.00          0.1422          0.4152 
       10050.00          0.0663          0.4358 
       10100.00          0.0776          0.4420 
       10150.00          0.0489          0.4477 
       10200.00          0.0579          0.4388 
       10250.00          0.0545          0.4341 
       10300.00          0.0581          0.4363 
       10350.00          0.0737          0.4497 
       10400.00          0.0731          0.4417 
       10450.00          0.0493          0.4405 
       10500.00          0.0630          0.4482 
       10550.00          0.0534          0.4439 
       10600.00          0.0590          0.4498 
       10650.00          0.0797          0.4506 
       10700.00          0.0839          0.4465 
       10750.00          0.0637          0.4521 
       10800.00          0.1291          0.4304 
       10850.00          0.0778          0.4441 
       10900.00          0.0927          0.4324 
       10950.00          0.0577          0.4495 
       11000.00          0.0549          0.4352 
       11050.00          0.1170          0.4347 
       11100.00          0.0448          0.4403 
       11150.00          0.0782          0.4505 
       11200.00          0.0850          0.4339 
       11250.00          0.0342          0.4531 
       11300.00          0.0451          0.4469 
       11350.00          0.0737          0.4412 
       11400.00          0.0777          0.4383 
       11450.00          0.0431          0.4367 
       11500.00          0.0586          0.4478 
       11550.00          0.0933          0.4398 
       11600.00          0.1188          0.4275 
       11650.00          0.0802          0.4544 
       11700.00          0.1358          0.4186 
       11750.00          0.0778          0.4396 
       11800.00          0.1150          0.4244 
       11850.00          0.0907          0.4267 
       11900.00          0.1056          0.4442 
       11950.00          0.0650          0.4469 
       12000.00          0.0916          0.4412 
       12050.00          0.0913          0.4432 
       12100.00          0.0962          0.4351 
       12150.00          0.0745          0.4347 
       12200.00          0.0563          0.4373 
       12250.00          0.0545          0.4406 
       12300.00          0.0738          0.4398 
       12350.00          0.0832          0.4368 
       12400.00          0.1067          0.4354 
       12450.00          0.1167          0.4332 
       12500.00          0.0660          0.4330 
       12550.00          0.0600          0.4466 
       12600.00          0.0523          0.4438 
       12650.00          0.0720          0.4414 
       12700.00          0.0697          0.4540 
       12750.00          0.0681          0.4428 
       12800.00          0.0424          0.4547 
       12850.00          0.1163          0.4373 
       12900.00          0.0651          0.4415 
       12950.00          0.0811          0.4346 
       13000.00          0.0597          0.4393 
       13050.00          0.0594          0.4298 
       13100.00          0.0566          0.4464 
       13150.00          0.0672          0.4423 
       13200.00          0.0421          0.4366 
       13250.00          0.0291          0.4496 
       13300.00          0.0681          0.4510 
       13350.00          0.0644          0.4353 
       13400.00          0.0447          0.4497 
       13450.00          0.0442          0.4425 
       13500.00          0.0535          0.4500 
       13550.00          0.0839          0.4452 
       13600.00          0.1145          0.4339 
       13650.00          0.0773          0.4466 
       13700.00          0.0792          0.4382 
       13750.00          0.0453          0.4582 
       13800.00          0.0591          0.4523 
       13850.00          0.0557          0.4375 
       13900.00          0.0638          0.4472 
       13950.00          0.0419          0.4485 
       14000.00          0.0779          0.4372 
       14050.00          0.0825          0.4430 
       14100.00          0.0686          0.4429 
       14150.00          0.0818          0.4421 
       14200.00          0.0768          0.4401 
       14250.00          0.0585          0.4392 
       14300.00          0.0581          0.4643 
       14350.00          0.0343          0.4545 
       14400.00          0.0316          0.4446 
       14450.00          0.0595          0.4359 
       14500.00          0.0762          0.4457 
       14550.00          0.0685          0.4469 
       14600.00          0.0856          0.4374 
       14650.00          0.0747          0.4390 
       14700.00          0.0699          0.4445 
       14750.00          0.0906          0.4364 
       14800.00          0.0865          0.4483 
       14850.00          0.0915          0.4308 
       14900.00          0.0593          0.4343 
       14950.00          0.0601          0.4538 
       15000.00          0.0660          0.4473 
       15050.00          0.0591          0.4483 
       15100.00          0.0384          0.4520 
       15150.00          0.0497          0.4411 
       15200.00          0.0406          0.4532 
       15250.00          0.0405          0.4536 
       15300.00          0.0518          0.4469 
       15350.00          0.0811          0.4360 
       15400.00          0.0534          0.4430 
       15450.00          0.0780          0.4316 
       15500.00          0.0709          0.4354 
       15550.00          0.1153          0.4282 
       15600.00          0.1024          0.4312 
       15650.00          0.0764          0.4421 
       15700.00          0.1062          0.4258 
       15750.00          0.0734          0.4490 
       15800.00          0.0845          0.4384 
       15850.00          0.0535          0.4378 
       15900.00          0.1010          0.4413 
       15950.00          0.0751          0.4403 
       16000.00          0.0882          0.4484 
       16050.00          0.0824          0.4255 
       16100.00          0.0668          0.4453 
       16150.00          0.0610          0.4529 
       16200.00          0.0848          0.4492 
       16250.00          0.0537          0.4501 
       16300.00          0.0523          0.4564 
       16350.00          0.0230          0.4467 
       16400.00          0.0544          0.4521 
       16450.00          0.0522          0.4445 
       16500.00          0.0953          0.4397 
       16550.00          0.0521          0.4460 
       16600.00          0.0666          0.4290 
       16650.00          0.0667          0.4542 
       16700.00          0.0522          0.4445 
       16750.00          0.0389          0.4559 
       16800.00          0.0315          0.4551 
       16850.00          0.0380          0.4454 
       16900.00          0.0512          0.4345 
       16950.00          0.0714          0.4477 
       17000.00          0.0557          0.4513 
       17050.00          0.0570          0.4493 
       17100.00          0.0423          0.4406 
       17150.00          0.0660          0.4416 
       17200.00          0.0290          0.4483 
       17250.00          0.0606          0.4536 
       17300.00          0.0794          0.4537 
       17350.00          0.0862          0.4357 
       17400.00          0.0447          0.4511 
       17450.00          0.0926          0.4398 
       17500.00          0.0546          0.4487 
       17550.00          0.0641          0.4527 
       17600.00          0.0527          0.4432 
       17650.00          0.0528          0.4380 
       17700.00          0.0414          0.4537 
       17750.00          0.0867          0.4437 
       17800.00          0.0834          0.4406 
       17850.00          0.0884          0.4418 
       17900.00          0.0601          0.4473 
       17950.00          0.0507          0.4440 
       18000.00          0.0863          0.4399 
       18050.00          0.0510          0.4413 
       18100.00          0.0603          0.4658 
       18150.00          0.0596          0.4367 
       18200.00          0.0716          0.4422 
       18250.00          0.0420          0.4604 
       18300.00          0.0546          0.4485 
       18350.00          0.0707          0.4447 
       18400.00          0.0682          0.4429 
       18450.00          0.0625          0.4471 
       18500.00          0.0379          0.4443 
       18550.00          0.0927          0.4442 
       18600.00          0.0420          0.4457 
       18650.00          0.0614          0.4387 
       18700.00          0.0933          0.4367 
       18750.00          0.0778          0.4380 
       18800.00          0.0728          0.4443 
       18850.00          0.0932          0.4454 
       18900.00          0.0647          0.4430 
       18950.00          0.0980          0.4434 
       19000.00          0.0897          0.4428 
       19050.00          0.0835          0.4449 
       19100.00          0.0985          0.4455 
       19150.00          0.0524          0.4573 
       19200.00          0.0863          0.4437 
       19250.00          0.1456          0.4135 
       19300.00          0.0628          0.4435 
       19350.00          0.0750          0.4458 
       19400.00          0.0522          0.4466 
       19450.00          0.0393          0.4421 
       19500.00          0.0852          0.4385 
       19550.00          0.0746          0.4558 
       19600.00          0.0562          0.4387 
       19650.00          0.0415          0.4488 
       19700.00          0.0702          0.4474 
       19750.00          0.0692          0.4476 
       19800.00          0.0588          0.4527 
       19850.00          0.0658          0.4489 
       19900.00          0.0953          0.4447 
       19950.00          0.0599          0.4422 
       20000.00          0.0509          0.4486 
       20050.00          0.0642          0.4458 
       20100.00          0.0655          0.4401 
       20150.00          0.0844          0.4498 
       20200.00          0.0732          0.4531 
       20250.00          0.0776          0.4374 
       20300.00          0.0479          0.4445 
