@    xaxis  label "t"
@    yaxis  label "RMSD (nm)"
           0.00          0.0003          0.4517 
          50.00          0.2055          0.4056 
         100.00          0.1554          0.3944 
         150.00          0.2130          0.3792 
         200.00          0.1415          0.4213 
         250.00          0.2251          0.4048 
         300.00          0.2448          0.4390 
         350.00          0.2772          0.4413 
         400.00          0.2462          0.4576 
         450.00          0.2465          0.4467 
         500.00          0.2421          0.4518 
         550.00          0.2745          0.4157 
         600.00          0.2632          0.4269 
         650.00          0.2833          0.3940 
         700.00          0.2665          0.4111 
         750.00          0.2594          0.4384 
         800.00          0.2646          0.4554 
         850.00          0.2680          0.4303 
         900.00          0.2325          0.4581 
         950.00          0.2655          0.4249 
        1000.00          0.3269          0.3884 
        1050.00          0.3229          0.3879 
        1100.00          0.2595          0.4351 
        1150.00          0.2679          0.4063 
        1200.00          0.2767          0.4231 
        1250.00          0.3030          0.3707 
        1300.00          0.2818          0.3980 
        1350.00          0.2716          0.3943 
        1400.00          0.2825          0.3759 
        1450.00          0.2586          0.4340 
        1500.00          0.2661          0.4173 
        1550.00          0.2812          0.4083 
        1600.00          0.2397          0.4556 
        1650.00          0.2588          0.4347 
        1700.00          0.2420          0.4636 
        1750.00          0.2686          0.3947 
        1800.00          0.3097          0.3880 
        1850.00          0.2954          0.4092 
        1900.00          0.3023          0.3881 
        1950.00          0.3014          0.3810 
        2000.00          0.3326          0.3610 
        2050.00          0.3173          0.3580 
        2100.00          0.2933          0.3442 
        2150.00          0.3210          0.3630 
        2200.00          0.2992          0.3395 
        2250.00          0.3188          0.3350 
        2300.00          0.3322          0.3312 
        2350.00          0.3833          0.3167 
        2400.00          0.3851          0.3474 
        2450.00          0.3386          0.3505 
        2500.00          0.3191          0.3651 
        2550.00          0.3095          0.3606 
        2600.00          0.2556          0.3601 
        2650.00          0.2733          0.3779 
        2700.00          0.2714          0.3913 
        2750.00          0.3138          0.4016 
        2800.00          0.3467          0.3659 
        2850.00          0.3284          0.3584 
        2900.00          0.2917          0.3629 
        2950.00          0.3344          0.3776 
        3000.00          0.3376          0.3586 
        3050.00          0.3584          0.3380 
        3100.00          0.3189          0.3415 
        3150.00          0.3166          0.3570 
        3200.00          0.3262          0.3325 
        3250.00          0.3483          0.3238 
        3300.00          0.3313          0.3485 
        3350.00          0.2926          0.3730 
        3400.00          0.3218          0.3581 
        3450.00          0.3473          0.3451 
        3500.00          0.3232          0.3653 
        3550.00          0.3041          0.3855 
        3600.00          0.3179          0.3391 
        3650.00          0.3030          0.3488 
        3700.00          0.3221          0.3415 
        3750.00          0.2855          0.3367 
        3800.00          0.3144          0.3497 
        3850.00          0.3300          0.3483 
        3900.00          0.3182          0.3369 
        3950.00          0.3575          0.3433 
        4000.00          0.3158          0.3956 
        4050.00          0.3364          0.3304 
        4100.00          0.3173          0.3608 
        4150.00          0.3065          0.3679 
        4200.00          0.3380          0.3403 
        4250.00          0.2761          0.3790 
        4300.00          0.3275          0.3541 
        4350.00          0.2909          0.3567 
        4400.00          0.3251          0.3633 
        4450.00          0.3126          0.3682 
        4500.00          0.2874          0.3972 
        4550.00          0.3027          0.3839 
        4600.00          0.3384          0.3328 
        4650.00          0.3266          0.3357 
        4700.00          0.3404          0.3325 
        4750.00          0.2854          0.3428 
        4800.00          0.2774          0.3628 
        4850.00          0.2880          0.3361 
        4900.00          0.2930          0.3451 
        4950.00          0.3448          0.3587 
        5000.00          0.3612          0.3289 
        5050.00          0.2978          0.3671 
        5100.00          0.2890          0.3802 
        5150.00          0.3163          0.3772 
        5200.00          0.2748          0.3934 
        5250.00          0.2603          0.3973 
        5300.00          0.2999          0.3428 
        5350.00          0.3150          0.3186 
        5400.00          0.3013          0.3532 
        5450.00          0.3090          0.3282 
        5500.00          0.3122          0.3210 
        5550.00          0.2808          0.3403 
        5600.00          0.2619          0.3870 
        5650.00          0.3191          0.3307 
        5700.00          0.3057          0.3694 
        5750.00          0.2978          0.3698 
        5800.00          0.2801          0.4231 
        5850.00          0.2946          0.4077 
        5900.00          0.2773          0.4222 
        5950.00          0.2959          0.4272 
        6000.00          0.3062          0.3780 
        6050.00          0.2985          0.3915 
        6100.00          0.3018          0.3901 
        6150.00          0.3604          0.3784 
        6200.00          0.3226          0.3794 
        6250.00          0.3271          0.3800 
        6300.00          0.3150          0.4008 
        6350.00          0.2965          0.3899 
        6400.00          0.3174          0.3539 
        6450.00          0.2899          0.4191 
        6500.00          0.2958          0.3782 
        6550.00          0.3403          0.3632 
        6600.00          0.3328          0.3528 
        6650.00          0.3214          0.3608 
        6700.00          0.3260          0.3659 
        6750.00          0.3463          0.3681 
        6800.00          0.2944          0.3670 
        6850.00          0.2966          0.3800 
        6900.00          0.3085          0.3899 
        6950.00          0.2854          0.3426 
        7000.00          0.3254          0.3157 
        7050.00          0.3500          0.3063 
        7100.00          0.3580          0.3391 
        7150.00          0.3621          0.3266 
        7200.00          0.3612          0.3331 
        7250.00          0.3378          0.3239 
        7300.00          0.3666          0.3096 
        7350.00          0.3787          0.3127 
        7400.00          0.4012          0.3099 
        7450.00          0.3271          0.3254 
        7500.00          0.3283          0.3849 
        7550.00          0.3011          0.3308 
        7600.00          0.2672          0.3713 
        7650.00          0.1971          0.4282 
        7700.00          0.2055          0.4415 
        7750.00          0.2112          0.4468 
        7800.00          0.2057          0.4615 
        7850.00          0.2287          0.4344 
        7900.00          0.2324          0.4491 
        7950.00          0.2419          0.4162 
        8000.00          0.2289          0.4218 
        8050.00          0.2465          0.4390 
        8100.00          0.2601          0.4353 
        8150.00          0.2433          0.4377 
        8200.00          0.2509          0.4374 
        8250.00          0.2424          0.4082 
        8300.00          0.2381          0.4143 
        8350.00          0.2701          0.3985 
        8400.00          0.2800          0.3931 
        8450.00          0.2049          0.4300 
        8500.00          0.2376          0.4054 
        8550.00          0.2754          0.3921 
        8600.00          0.2457          0.4092 
        8650.00          0.2344          0.3960 
        8700.00          0.2688          0.3959 
        8750.00          0.2382          0.3986 
        8800.00          0.2389          0.4050 
        8850.00          0.2811          0.3808 
        8900.00          0.2999          0.3478 
        8950.00          0.2960          0.3698 
        9000.00          0.3212          0.3502 
        9050.00          0.2858          0.3555 
        9100.00          0.3005          0.3658 
        9150.00          0.2689          0.3681 
        9200.00          0.3254          0.3667 
        9250.00          0.2875          0.3706 
        9300.00          0.2719          0.3527 
        9350.00          0.2904          0.3538 
        9400.00          0.3034          0.3695 
        9450.00          0.3024          0.3598 
        9500.00          0.2828          0.3527 
        9550.00          0.2951          0.3823 
        9600.00          0.2899          0.3636 
        9650.00          0.2702          0.3694 
        9700.00          0.2885          0.3595 
        9750.00          0.2522          0.4132 
        9800.00          0.2612          0.3690 
        9850.00          0.2605          0.3769 
        9900.00          0.2682          0.3740 
        9950.00          0.2397          0.3922 
       10000.00          0.2188          0.3973 
       10050.00          0.2543          0.3855 
       10100.00          0.2648          0.3741 
       10150.00          0.2457          0.3868 
       10200.00          0.2236          0.4190 
       10250.00          0.2721          0.4014 
       10300.00          0.2578          0.3960 
       10350.00          0.2061          0.4257 
       10400.00          0.2754          0.4121 
       10450.00          0.2454          0.4109 
       10500.00          0.2179          0.4393 
       10550.00          0.2252          0.4267 
       10600.00          0.2319          0.4097 
       10650.00          0.2593          0.4080 
       10700.00          0.2151          0.4050 
       10750.00          0.1899          0.4175 
       10800.00          0.2286          0.4454 
       10850.00          0.2861          0.3931 
       10900.00          0.2206          0.4316 
       10950.00          0.2158          0.4293 
       11000.00          0.1906          0.4669 
       11050.00          0.1847          0.4675 
       11100.00          0.2045          0.4400 
       11150.00          0.2419          0.4341 
       11200.00          0.2274          0.4250 
       11250.00          0.2748          0.3796 
       11300.00          0.2542          0.3904 
       11350.00          0.2597          0.4018 
       11400.00          0.2466          0.4236 
       11450.00          0.2186          0.4401 
       11500.00          0.2154          0.4213 
       11550.00          0.2288          0.4220 
       11600.00          0.2213          0.4257 
       11650.00          0.2533          0.3995 
       11700.00          0.2204          0.4098 
       11750.00          0.1863          0.4342 
       11800.00          0.2045          0.4287 
       11850.00          0.2184          0.4189 
       11900.00          0.2413          0.4014 
       11950.00          0.2396          0.4127 
       12000.00          0.1996          0.4273 
       12050.00          0.2086          0.4411 
       12100.00          0.2515          0.4063 
       12150.00          0.2456          0.3982 
       12200.00          0.2251          0.4160 
       12250.00          0.1944          0.4314 
       12300.00          0.2416          0.4355 
       12350.00          0.2194          0.3826 
       12400.00          0.1657          0.4471 
       12450.00          0.2212          0.4101 
       12500.00          0.2552          0.4044 
       12550.00          0.2149          0.4371 
       12600.00          0.2564          0.4064 
       12650.00          0.2346          0.4473 
       12700.00          0.2011          0.4330 
       12750.00          0.2037          0.4560 
       12800.00          0.2061          0.4460 
       12850.00          0.2623          0.4147 
       12900.00          0.2502          0.4011 
       12950.00          0.2321          0.3882 
       13000.00          0.0994          0.4525 
       13050.00          0.1256          0.4304 
       13100.00          0.1133          0.4185 
       13150.00          0.0632          0.4400 
       13200.00          0.0802          0.4382 
       13250.00          0.0627          0.4412 
       13300.00          0.0633          0.4563 
       13350.00          0.0506          0.4514 
       13400.00          0.0493          0.4473 
       13450.00          0.0410          0.4538 
       13500.00          0.0543          0.4442 
       13550.00          0.0723          0.4479 
       13600.00          0.0840          0.4438 
       13650.00          0.0644          0.4476 
       13700.00          0.0775          0.4424 
       13750.00          0.0937          0.4305 
       13800.00          0.0689          0.4404 
       13850.00          0.0713          0.4316 
       13900.00          0.0823          0.4500 
       13950.00          0.1042          0.4402 
       14000.00          0.0942          0.4323 
       14050.00          0.0758          0.4438 
       14100.00          0.0849          0.4607 
       14150.00          0.0727          0.4448 
       14200.00          0.0678          0.4430 
       14250.00          0.0994          0.4465 
       14300.00          0.0402          0.4428 
       14350.00          0.0776          0.4488 
       14400.00          0.0724          0.4501 
       14450.00          0.0678          0.4330 
       14500.00          0.0674          0.4525 
       14550.00          0.0685          0.4451 
       14600.00          0.0701          0.4500 
       14650.00          0.0848          0.4455 
       14700.00          0.0616          0.4393 
       14750.00          0.1097          0.4227 
       14800.00          0.1000          0.4383 
       14850.00          0.0650          0.4438 
       14900.00          0.0693          0.4392 
       14950.00          0.0722          0.4293 
       15000.00          0.0646          0.4472 
       15050.00          0.0831          0.4523 
       15100.00          0.0295          0.4420 
       15150.00          0.0730          0.4494 
       15200.00          0.0729          0.4362 
       15250.00          0.0571          0.4371 
       15300.00          0.1230          0.4239 
       15350.00          0.1674          0.4012 
       15400.00          0.0830          0.4351 
       15450.00          0.0947          0.4481 
       15500.00          0.0666          0.4429 
       15550.00          0.0575          0.4386 
       15600.00          0.1068          0.4262 
       15650.00          0.0709          0.4472 
       15700.00          0.0518          0.4507 
       15750.00          0.0654          0.4502 
       15800.00          0.0628          0.4442 
       15850.00          0.0850          0.4389 
       15900.00          0.0820          0.4467 
       15950.00          0.0788          0.4351 
       16000.00          0.0741          0.4366 
       16050.00          0.0780          0.4356 
       16100.00          0.1259          0.4216 
       16150.00          0.1845          0.4011 
       16200.00          0.2020          0.4047 
       16250.00          0.2215          0.3846 
       16300.00          0.1560          0.4355 
       16350.00          0.1270          0.4600 
       16400.00          0.1363          0.4317 
       16450.00          0.1214          0.4388 
       16500.00          0.1308          0.4415 
       16550.00          0.2391          0.3755 
       16600.00          0.1721          0.3889 
       16650.00          0.1766          0.3789 
       16700.00          0.1818          0.4125 
       16750.00          0.1200          0.4362 
       16800.00          0.0995          0.4503 
       16850.00          0.0971          0.4488 
       16900.00          0.1313          0.4695 
       16950.00          0.0755          0.4559 
       17000.00          0.1467          0.4292 
       17050.00          0.1195          0.4725 
       17100.00          0.1133          0.4911 
       17150.00          0.0902          0.4769 
       17200.00          0.1394          0.4655 
       17250.00          0.2162          0.4122 
       17300.00          0.2432          0.4084 
       17350.00          0.1820          0.4404 
       17400.00          0.2477          0.4453 
       17450.00          0.2320          0.4638 
       17500.00          0.1636          0.5290 
       17550.00          0.2162          0.5376 
       17600.00          0.1971          0.4821 
       17650.00          0.2038          0.5301 
       17700.00          0.1929          0.4124 
       17750.00          0.2585          0.3811 
       17800.00          0.3487          0.3279 
       17850.00          0.3464          0.3197 
       17900.00          0.3334          0.3593 
       17950.00          0.3012          0.3868 
       18000.00          0.2648          0.3927 
       18050.00          0.2721          0.3930 
       18100.00          0.2463          0.3976 
       18150.00          0.1730          0.4427 
       18200.00          0.2217          0.4210 
       18250.00          0.2775          0.3774 
       18300.00          0.2088          0.4357 
       18350.00          0.2504          0.3947 
       18400.00          0.2313          0.4069 
       18450.00          0.2210          0.4186 
       18500.00          0.2514          0.3990 
       18550.00          0.2426          0.3912 
       18600.00          0.2056          0.4311 
       18650.00          0.2758          0.3593 
       18700.00          0.2711          0.3807 
       18750.00          0.2142          0.4500 
       18800.00          0.2398          0.4064 
       18850.00          0.2552          0.4461 
       18900.00          0.3160          0.3579 
       18950.00          0.3222          0.3998 
       19000.00          0.3138          0.4118 
       19050.00          0.3001          0.3438 
       19100.00          0.2982          0.3372 
       19150.00          0.2496          0.4161 
       19200.00          0.2701          0.4320 
       19250.00          0.2765          0.3700 
       19300.00          0.2534          0.3713 
       19350.00          0.3202          0.3735 
       19400.00          0.3092          0.3800 
       19450.00          0.2985          0.3864 
       19500.00          0.2857          0.4109 
       19550.00          0.2884          0.4174 
       19600.00          0.2599          0.4306 
       19650.00          0.2979          0.3815 
       19700.00          0.2896          0.4397 
       19750.00          0.2873          0.4211 
       19800.00          0.2947          0.4042 
       19850.00          0.1962          0.4618 
       19900.00          0.2242          0.4666 
       19950.00          0.2974          0.3994 
       20000.00          0.2995          0.4290 
       20050.00          0.2765          0.4789 
       20100.00          0.2553          0.4678 
       20150.00          0.2013          0.4340 
       20200.00          0.1477          0.4445 
       20250.00          0.1540          0.4508 
       20300.00          0.1605          0.4395 
