@    xaxis  label "t"
@    yaxis  label "RMSD (nm)"
           0.00          0.0002          0.4517 
          50.00          0.2057          0.4174 
         100.00          0.2333          0.4620 
         150.00          0.2259          0.4969 
         200.00          0.1543          0.5108 
         250.00          0.2549          0.5230 
         300.00          0.2914          0.4583 
         350.00          0.3044          0.5265 
         400.00          0.4085          0.6022 
         450.00          0.3443          0.5983 
         500.00          0.3882          0.6623 
         550.00          0.4485          0.6737 
         600.00          0.4826          0.6964 
         650.00          0.4130          0.6448 
         700.00          0.4223          0.5896 
         750.00          0.4248          0.5974 
         800.00          0.4536          0.6793 
         850.00          0.4547          0.7032 
         900.00          0.4692          0.6812 
         950.00          0.4186          0.6279 
        1000.00          0.4393          0.6354 
        1050.00          0.4631          0.6695 
        1100.00          0.4509          0.6707 
        1150.00          0.4242          0.6223 
        1200.00          0.3988          0.5849 
        1250.00          0.3715          0.5706 
        1300.00          0.4055          0.5738 
        1350.00          0.3783          0.5174 
        1400.00          0.3747          0.6023 
        1450.00          0.3493          0.6145 
        1500.00          0.4237          0.6466 
        1550.00          0.4255          0.6647 
        1600.00          0.4532          0.6407 
        1650.00          0.4086          0.5312 
        1700.00          0.3676          0.4706 
        1750.00          0.3858          0.4010 
        1800.00          0.3448          0.4236 
        1850.00          0.3447          0.4558 
        1900.00          0.2946          0.4734 
        1950.00          0.2761          0.5299 
        2000.00          0.2764          0.5007 
        2050.00          0.3158          0.4502 
        2100.00          0.3743          0.4173 
        2150.00          0.3764          0.4096 
        2200.00          0.3891          0.3836 
        2250.00          0.3908          0.3164 
        2300.00          0.4340          0.2530 
        2350.00          0.4078          0.3138 
        2400.00          0.4243          0.2166 
        2450.00          0.4530          0.1426 
        2500.00          0.4372          0.1783 
        2550.00          0.4499          0.1938 
        2600.00          0.4575          0.2457 
        2650.00          0.3966          0.3025 
        2700.00          0.4139          0.2955 
        2750.00          0.4413          0.3587 
        2800.00          0.4412          0.4625 
        2850.00          0.4180          0.4331 
        2900.00          0.4784          0.5213 
        2950.00          0.3689          0.4562 
        3000.00          0.3766          0.3716 
        3050.00          0.3898          0.3916 
        3100.00          0.4592          0.2619 
        3150.00          0.4621          0.2296 
        3200.00          0.4774          0.2001 
        3250.00          0.4731          0.1843 
        3300.00          0.4908          0.2400 
        3350.00          0.4787          0.2978 
        3400.00          0.4786          0.2856 
        3450.00          0.5085          0.3720 
        3500.00          0.3932          0.4098 
        3550.00          0.3891          0.3565 
        3600.00          0.4035          0.3476 
        3650.00          0.4529          0.3305 
        3700.00          0.4517          0.3329 
        3750.00          0.4430          0.2920 
        3800.00          0.4453          0.2681 
        3850.00          0.4511          0.3040 
        3900.00          0.4357          0.3473 
        3950.00          0.4194          0.3583 
        4000.00          0.4102          0.3184 
        4050.00          0.3736          0.3321 
        4100.00          0.3850          0.3120 
        4150.00          0.4132          0.3361 
        4200.00          0.4218          0.4224 
        4250.00          0.4585          0.4814 
        4300.00          0.4048          0.4494 
        4350.00          0.4061          0.4032 
        4400.00          0.3839          0.4302 
        4450.00          0.3921          0.4901 
        4500.00          0.3981          0.5319 
        4550.00          0.4065          0.4719 
        4600.00          0.4143          0.3993 
        4650.00          0.4141          0.3989 
        4700.00          0.3579          0.3890 
        4750.00          0.4003          0.4254 
        4800.00          0.3655          0.4452 
        4850.00          0.3630          0.4512 
        4900.00          0.3784          0.4953 
        4950.00          0.3886          0.4887 
        5000.00          0.3358          0.4685 
        5050.00          0.4254          0.4518 
        5100.00          0.3916          0.5603 
        5150.00          0.3932          0.5868 
        5200.00          0.3983          0.5670 
        5250.00          0.4078          0.5649 
        5300.00          0.4206          0.5081 
        5350.00          0.4280          0.5495 
        5400.00          0.4910          0.6277 
        5450.00          0.4626          0.6314 
        5500.00          0.3996          0.4836 
        5550.00          0.3940          0.4644 
        5600.00          0.4177          0.4552 
        5650.00          0.4468          0.3205 
        5700.00          0.4434          0.3243 
        5750.00          0.4218          0.3464 
        5800.00          0.4109          0.3555 
        5850.00          0.4024          0.4462 
        5900.00          0.3984          0.4448 
        5950.00          0.4278          0.4356 
        6000.00          0.4185          0.4799 
        6050.00          0.4079          0.4643 
        6100.00          0.4056          0.4184 
        6150.00          0.3852          0.4322 
        6200.00          0.4222          0.4544 
        6250.00          0.3935          0.3910 
        6300.00          0.3566          0.4299 
        6350.00          0.4034          0.5600 
        6400.00          0.4142          0.5390 
        6450.00          0.3843          0.4771 
        6500.00          0.4405          0.5162 
        6550.00          0.3712          0.5007 
        6600.00          0.3877          0.5151 
        6650.00          0.3858          0.4786 
        6700.00          0.3683          0.4922 
        6750.00          0.3622          0.4451 
        6800.00          0.3664          0.5059 
        6850.00          0.4142          0.5152 
        6900.00          0.4130          0.5730 
        6950.00          0.3852          0.5434 
        7000.00          0.4198          0.5331 
        7050.00          0.4010          0.5893 
        7100.00          0.4087          0.5454 
        7150.00          0.3623          0.5323 
        7200.00          0.3980          0.6068 
        7250.00          0.4143          0.6208 
        7300.00          0.4014          0.5979 
        7350.00          0.3736          0.4698 
        7400.00          0.4500          0.5880 
        7450.00          0.4332          0.5895 
        7500.00          0.3965          0.4914 
        7550.00          0.4463          0.5222 
        7600.00          0.4300          0.5841 
        7650.00          0.4787          0.6191 
        7700.00          0.4792          0.6560 
        7750.00          0.4759          0.6724 
        7800.00          0.4323          0.6345 
        7850.00          0.4077          0.6102 
        7900.00          0.3572          0.5701 
        7950.00          0.3661          0.5926 
        8000.00          0.3319          0.5262 
        8050.00          0.3414          0.5090 
        8100.00          0.3274          0.5465 
        8150.00          0.3590          0.6000 
        8200.00          0.3749          0.5899 
        8250.00          0.4183          0.5525 
        8300.00          0.3744          0.5705 
        8350.00          0.3485          0.5225 
        8400.00          0.3680          0.5557 
        8450.00          0.4060          0.5584 
        8500.00          0.3856          0.5198 
        8550.00          0.3765          0.5830 
        8600.00          0.3641          0.5122 
        8650.00          0.3955          0.5609 
        8700.00          0.4012          0.5119 
        8750.00          0.4451          0.5522 
        8800.00          0.4367          0.5715 
        8850.00          0.4871          0.6594 
        8900.00          0.5095          0.7327 
        8950.00          0.4517          0.6229 
        9000.00          0.4244          0.6356 
        9050.00          0.4681          0.6734 
        9100.00          0.4823          0.6399 
        9150.00          0.4589          0.5736 
        9200.00          0.3979          0.5317 
        9250.00          0.4492          0.4736 
        9300.00          0.4321          0.5136 
        9350.00          0.4101          0.4446 
        9400.00          0.3888          0.4405 
        9450.00          0.4006          0.3464 
        9500.00          0.3741          0.3941 
        9550.00          0.3861          0.4875 
        9600.00          0.4292          0.5383 
        9650.00          0.4563          0.5520 
        9700.00          0.4006          0.5236 
        9750.00          0.3624          0.5465 
        9800.00          0.3691          0.5233 
        9850.00          0.3625          0.5029 
        9900.00          0.3734          0.4406 
        9950.00          0.3902          0.4934 
       10000.00          0.3302          0.4647 
       10050.00          0.2980          0.4680 
       10100.00          0.3636          0.5439 
       10150.00          0.3697          0.5358 
       10200.00          0.4027          0.4978 
       10250.00          0.3840          0.4633 
       10300.00          0.3930          0.4356 
       10350.00          0.3259          0.4858 
       10400.00          0.3703          0.4809 
       10450.00          0.3860          0.3510 
       10500.00          0.4001          0.3896 
       10550.00          0.3427          0.4417 
       10600.00          0.3351          0.4220 
       10650.00          0.3866          0.3539 
       10700.00          0.4074          0.3891 
       10750.00          0.3774          0.3533 
       10800.00          0.3664          0.3587 
       10850.00          0.3300          0.4316 
       10900.00          0.2877          0.4382 
       10950.00          0.3044          0.4355 
       11000.00          0.2959          0.4621 
       11050.00          0.3688          0.5235 
       11100.00          0.3744          0.4742 
       11150.00          0.4236          0.5724 
       11200.00          0.3875          0.5349 
       11250.00          0.3967          0.5853 
       11300.00          0.4246          0.6083 
       11350.00          0.3968          0.5233 
       11400.00          0.4120          0.5573 
       11450.00          0.3934          0.5584 
       11500.00          0.3845          0.5753 
       11550.00          0.4212          0.6153 
       11600.00          0.3899          0.5855 
       11650.00          0.4430          0.4942 
       11700.00          0.4052          0.4584 
       11750.00          0.3989          0.4478 
       11800.00          0.4003          0.5352 
       11850.00          0.3997          0.5873 
       11900.00          0.4047          0.5772 
       11950.00          0.4521          0.6319 
       12000.00          0.4904          0.6266 
       12050.00          0.4836          0.6822 
       12100.00          0.4852          0.6685 
       12150.00          0.4623          0.6428 
       12200.00          0.4075          0.5228 
       12250.00          0.4411          0.4747 
       12300.00          0.4487          0.4403 
       12350.00          0.4249          0.4741 
       12400.00          0.4202          0.4269 
       12450.00          0.4133          0.4427 
       12500.00          0.4605          0.4335 
       12550.00          0.4443          0.4403 
       12600.00          0.4101          0.5347 
       12650.00          0.4224          0.5356 
       12700.00          0.4195          0.4703 
       12750.00          0.3860          0.3663 
       12800.00          0.3779          0.4101 
       12850.00          0.3782          0.4789 
       12900.00          0.4109          0.5906 
       12950.00          0.3883          0.5764 
       13000.00          0.3971          0.6335 
       13050.00          0.3923          0.6309 
       13100.00          0.3717          0.5932 
       13150.00          0.4205          0.5570 
       13200.00          0.4454          0.6300 
       13250.00          0.4341          0.6359 
       13300.00          0.4428          0.6080 
       13350.00          0.4727          0.6771 
       13400.00          0.3923          0.6170 
       13450.00          0.3515          0.5473 
       13500.00          0.3555          0.5792 
       13550.00          0.3617          0.5421 
       13600.00          0.4236          0.5969 
       13650.00          0.4296          0.5658 
       13700.00          0.3840          0.5225 
       13750.00          0.3773          0.5655 
       13800.00          0.3355          0.5641 
       13850.00          0.4164          0.6323 
       13900.00          0.4159          0.5464 
       13950.00          0.4111          0.5453 
       14000.00          0.3979          0.5919 
       14050.00          0.3728          0.5212 
       14100.00          0.3982          0.5242 
       14150.00          0.3919          0.4374 
       14200.00          0.4129          0.4286 
       14250.00          0.4260          0.4900 
       14300.00          0.4382          0.4953 
       14350.00          0.3817          0.4674 
       14400.00          0.4052          0.5148 
       14450.00          0.4251          0.5766 
       14500.00          0.4410          0.6078 
       14550.00          0.4585          0.6534 
       14600.00          0.4458          0.6770 
       14650.00          0.4239          0.6076 
       14700.00          0.4177          0.5937 
       14750.00          0.4136          0.5961 
       14800.00          0.4581          0.6398 
       14850.00          0.4563          0.6685 
       14900.00          0.5003          0.6971 
       14950.00          0.4402          0.6216 
       15000.00          0.4606          0.6460 
       15050.00          0.4630          0.6253 
       15100.00          0.4645          0.5919 
       15150.00          0.4390          0.6467 
       15200.00          0.4052          0.5950 
       15250.00          0.4128          0.5569 
       15300.00          0.4513          0.6113 
       15350.00          0.4309          0.5559 
       15400.00          0.4315          0.4765 
       15450.00          0.4271          0.5603 
       15500.00          0.4590          0.5878 
       15550.00          0.4422          0.5739 
       15600.00          0.4097          0.4894 
       15650.00          0.4232          0.5105 
       15700.00          0.4152          0.4437 
       15750.00          0.4468          0.3877 
       15800.00          0.4129          0.4078 
       15850.00          0.4120          0.4806 
       15900.00          0.3850          0.4934 
       15950.00          0.4383          0.5574 
       16000.00          0.4751          0.6239 
       16050.00          0.4680          0.6887 
       16100.00          0.4940          0.6883 
       16150.00          0.4974          0.6669 
       16200.00          0.4987          0.6986 
       16250.00          0.4874          0.6694 
       16300.00          0.4804          0.6429 
       16350.00          0.4610          0.6253 
       16400.00          0.4947          0.7062 
       16450.00          0.5261          0.7162 
       16500.00          0.4359          0.6249 
       16550.00          0.4438          0.6832 
       16600.00          0.4232          0.6333 
       16650.00          0.3890          0.5210 
       16700.00          0.3632          0.5032 
       16750.00          0.3792          0.5749 
       16800.00          0.4305          0.5821 
       16850.00          0.4452          0.5826 
       16900.00          0.4309          0.5646 
       16950.00          0.4701          0.6234 
       17000.00          0.4002          0.5796 
       17050.00          0.4392          0.5973 
       17100.00          0.4749          0.6408 
       17150.00          0.4271          0.6166 
       17200.00          0.4677          0.6698 
       17250.00          0.4660          0.6703 
       17300.00          0.4173          0.5986 
       17350.00          0.4304          0.5852 
       17400.00          0.4503          0.5578 
       17450.00          0.4749          0.5758 
       17500.00          0.4449          0.5917 
       17550.00          0.4617          0.5835 
       17600.00          0.4409          0.5780 
       17650.00          0.4060          0.5606 
       17700.00          0.4038          0.6003 
       17750.00          0.4371          0.6290 
       17800.00          0.4428          0.6285 
       17850.00          0.4792          0.6934 
       17900.00          0.4728          0.6604 
       17950.00          0.4208          0.6350 
       18000.00          0.5272          0.7616 
       18050.00          0.4899          0.6998 
       18100.00          0.4774          0.6331 
       18150.00          0.4460          0.5986 
       18200.00          0.4570          0.5283 
       18250.00          0.4417          0.5434 
       18300.00          0.4352          0.5568 
       18350.00          0.4072          0.5855 
       18400.00          0.4178          0.5496 
       18450.00          0.4422          0.5637 
       18500.00          0.4257          0.5737 
       18550.00          0.4058          0.5495 
       18600.00          0.4355          0.5337 
       18650.00          0.4347          0.5421 
       18700.00          0.4028          0.5130 
       18750.00          0.4060          0.3603 
       18800.00          0.3726          0.3690 
       18850.00          0.3905          0.3644 
       18900.00          0.4079          0.3612 
       18950.00          0.3879          0.2875 
       19000.00          0.3833          0.2693 
       19050.00          0.4342          0.3816 
       19100.00          0.4150          0.4503 
       19150.00          0.4445          0.4497 
       19200.00          0.3980          0.4245 
       19250.00          0.4208          0.4822 
       19300.00          0.4335          0.5381 
       19350.00          0.4679          0.6429 
       19400.00          0.4319          0.6533 
       19450.00          0.4447          0.6660 
       19500.00          0.3892          0.5993 
       19550.00          0.3830          0.5957 
       19600.00          0.3880          0.5406 
       19650.00          0.4213          0.6063 
       19700.00          0.4316          0.6270 
       19750.00          0.4275          0.6570 
       19800.00          0.3924          0.6248 
       19850.00          0.3765          0.6252 
       19900.00          0.3610          0.6041 
       19950.00          0.3692          0.5479 
       20000.00          0.3843          0.6157 
       20050.00          0.3775          0.6234 
       20100.00          0.3991          0.6402 
       20150.00          0.4246          0.6399 
       20200.00          0.3505          0.5945 
       20250.00          0.3624          0.5739 
       20300.00          0.3589          0.5573 
