@    xaxis  label "t"
@    yaxis  label "RMSD (nm)"
           0.00          0.0002          0.4517 
          50.00          0.1751          0.4297 
         100.00          0.2187          0.4014 
         150.00          0.2824          0.3380 
         200.00          0.2864          0.3855 
         250.00          0.2195          0.4487 
         300.00          0.2587          0.4417 
         350.00          0.2956          0.4503 
         400.00          0.3106          0.4021 
         450.00          0.3308          0.3692 
         500.00          0.3005          0.4179 
         550.00          0.2572          0.4142 
         600.00          0.1920          0.4541 
         650.00          0.1242          0.4684 
         700.00          0.1824          0.4367 
         750.00          0.2080          0.4347 
         800.00          0.1120          0.4346 
         850.00          0.1793          0.4475 
         900.00          0.1873          0.4388 
         950.00          0.2073          0.4240 
        1000.00          0.1714          0.4382 
        1050.00          0.1654          0.4625 
        1100.00          0.1929          0.4153 
        1150.00          0.2052          0.4129 
        1200.00          0.1747          0.4304 
        1250.00          0.1976          0.4193 
        1300.00          0.1582          0.4313 
        1350.00          0.1774          0.4294 
        1400.00          0.1930          0.4246 
        1450.00          0.1746          0.4332 
        1500.00          0.2332          0.3865 
        1550.00          0.2529          0.3899 
        1600.00          0.2247          0.4062 
        1650.00          0.1725          0.4247 
        1700.00          0.1836          0.4289 
        1750.00          0.1959          0.4211 
        1800.00          0.1396          0.4540 
        1850.00          0.1353          0.4564 
        1900.00          0.1919          0.4162 
        1950.00          0.1581          0.4478 
        2000.00          0.1913          0.4187 
        2050.00          0.1843          0.4354 
        2100.00          0.1794          0.4280 
        2150.00          0.2262          0.4077 
        2200.00          0.2425          0.3889 
        2250.00          0.2278          0.3963 
        2300.00          0.2192          0.3898 
        2350.00          0.1998          0.4168 
        2400.00          0.1797          0.4191 
        2450.00          0.1857          0.4230 
        2500.00          0.2019          0.4177 
        2550.00          0.1825          0.4308 
        2600.00          0.2118          0.4042 
        2650.00          0.1946          0.4176 
        2700.00          0.1821          0.4329 
        2750.00          0.1603          0.4367 
        2800.00          0.2078          0.4281 
        2850.00          0.1910          0.4215 
        2900.00          0.1543          0.4443 
        2950.00          0.1747          0.4341 
        3000.00          0.2205          0.4112 
        3050.00          0.1641          0.4304 
        3100.00          0.1608          0.4454 
        3150.00          0.0856          0.4689 
        3200.00          0.0769          0.4453 
        3250.00          0.0608          0.4709 
        3300.00          0.1738          0.4416 
        3350.00          0.1958          0.4197 
        3400.00          0.2253          0.4084 
        3450.00          0.2450          0.4030 
        3500.00          0.2129          0.4057 
        3550.00          0.1955          0.4181 
        3600.00          0.2032          0.4215 
        3650.00          0.2289          0.4050 
        3700.00          0.2038          0.4214 
        3750.00          0.1643          0.4290 
        3800.00          0.2285          0.4038 
        3850.00          0.2019          0.4202 
        3900.00          0.1461          0.4601 
        3950.00          0.1716          0.4382 
        4000.00          0.1908          0.4212 
        4050.00          0.1696          0.4288 
        4100.00          0.1654          0.4404 
        4150.00          0.1908          0.4177 
        4200.00          0.1806          0.4294 
        4250.00          0.1805          0.4214 
        4300.00          0.1793          0.4198 
        4350.00          0.2058          0.4255 
        4400.00          0.1690          0.4320 
        4450.00          0.1870          0.4244 
        4500.00          0.1958          0.4285 
        4550.00          0.1819          0.4343 
        4600.00          0.2549          0.3815 
        4650.00          0.2368          0.3867 
        4700.00          0.2112          0.4068 
        4750.00          0.1523          0.4348 
        4800.00          0.1751          0.4305 
        4850.00          0.1924          0.4189 
        4900.00          0.2024          0.4171 
        4950.00          0.1977          0.4171 
        5000.00          0.1989          0.4228 
        5050.00          0.1973          0.4269 
        5100.00          0.2202          0.4134 
        5150.00          0.2150          0.4185 
        5200.00          0.2128          0.4121 
        5250.00          0.1950          0.4193 
        5300.00          0.2309          0.4150 
        5350.00          0.1927          0.4242 
        5400.00          0.2379          0.3906 
        5450.00          0.1870          0.4288 
        5500.00          0.1568          0.4344 
        5550.00          0.1886          0.4253 
        5600.00          0.1190          0.4621 
        5650.00          0.1473          0.4380 
        5700.00          0.1766          0.4270 
        5750.00          0.1771          0.4220 
        5800.00          0.1968          0.4151 
        5850.00          0.2002          0.4183 
        5900.00          0.2019          0.4145 
        5950.00          0.1597          0.4434 
        6000.00          0.2149          0.4131 
        6050.00          0.1616          0.4319 
        6100.00          0.1718          0.4326 
        6150.00          0.1911          0.4238 
        6200.00          0.1691          0.4273 
        6250.00          0.1783          0.4233 
        6300.00          0.1852          0.4149 
        6350.00          0.2152          0.4045 
        6400.00          0.1948          0.4182 
        6450.00          0.2037          0.4150 
        6500.00          0.1840          0.4287 
        6550.00          0.2132          0.4076 
        6600.00          0.2017          0.4174 
        6650.00          0.2149          0.4202 
        6700.00          0.2011          0.4177 
        6750.00          0.2124          0.4199 
        6800.00          0.1813          0.4303 
        6850.00          0.2025          0.4244 
        6900.00          0.1802          0.4296 
        6950.00          0.2135          0.4034 
        7000.00          0.1913          0.4231 
        7050.00          0.1960          0.4174 
        7100.00          0.1570          0.4359 
        7150.00          0.1449          0.4555 
        7200.00          0.1543          0.4374 
        7250.00          0.1185          0.4632 
        7300.00          0.0786          0.4460 
        7350.00          0.0795          0.4273 
        7400.00          0.0899          0.4538 
        7450.00          0.0684          0.4378 
        7500.00          0.0660          0.4480 
        7550.00          0.0681          0.4411 
        7600.00          0.0675          0.4414 
        7650.00          0.0484          0.4477 
        7700.00          0.0760          0.4435 
        7750.00          0.0874          0.4267 
        7800.00          0.0757          0.4485 
        7850.00          0.0986          0.4446 
        7900.00          0.0881          0.4257 
        7950.00          0.0680          0.4444 
        8000.00          0.0749          0.4357 
        8050.00          0.0602          0.4410 
        8100.00          0.0562          0.4505 
        8150.00          0.0628          0.4453 
        8200.00          0.0585          0.4442 
        8250.00          0.0524          0.4561 
        8300.00          0.0810          0.4514 
        8350.00          0.0807          0.4542 
        8400.00          0.0947          0.4447 
        8450.00          0.1323          0.4355 
        8500.00          0.1377          0.4266 
        8550.00          0.1213          0.4430 
        8600.00          0.1377          0.4168 
        8650.00          0.1066          0.4342 
        8700.00          0.0631          0.4377 
        8750.00          0.0476          0.4633 
        8800.00          0.0397          0.4563 
        8850.00          0.0720          0.4343 
        8900.00          0.1023          0.4397 
        8950.00          0.1209          0.4317 
        9000.00          0.0860          0.4528 
        9050.00          0.0390          0.4414 
        9100.00          0.0482          0.4435 
        9150.00          0.0509          0.4479 
        9200.00          0.0604          0.4357 
        9250.00          0.0844          0.4441 
        9300.00          0.0806          0.4394 
        9350.00          0.0501          0.4435 
        9400.00          0.0484          0.4476 
        9450.00          0.0582          0.4494 
        9500.00          0.0627          0.4453 
        9550.00          0.1211          0.4226 
        9600.00          0.0594          0.4480 
        9650.00          0.0642          0.4361 
        9700.00          0.0781          0.4455 
        9750.00          0.0649          0.4445 
        9800.00          0.0986          0.4429 
        9850.00          0.0726          0.4315 
        9900.00          0.0696          0.4370 
        9950.00          0.0373          0.4537 
       10000.00          0.0507          0.4542 
       10050.00          0.0458          0.4493 
       10100.00          0.0734          0.4559 
       10150.00          0.0475          0.4588 
       10200.00          0.0911          0.4391 
       10250.00          0.0467          0.4420 
       10300.00          0.0527          0.4542 
       10350.00          0.0407          0.4572 
       10400.00          0.0538          0.4606 
       10450.00          0.0473          0.4407 
       10500.00          0.0672          0.4489 
       10550.00          0.0505          0.4429 
       10600.00          0.1074          0.4355 
       10650.00          0.1215          0.4313 
       10700.00          0.0771          0.4406 
       10750.00          0.0633          0.4475 
       10800.00          0.0982          0.4466 
       10850.00          0.0709          0.4504 
       10900.00          0.0678          0.4372 
       10950.00          0.0506          0.4434 
       11000.00          0.0866          0.4411 
       11050.00          0.0674          0.4574 
       11100.00          0.0822          0.4536 
       11150.00          0.0575          0.4510 
       11200.00          0.0739          0.4518 
       11250.00          0.1160          0.4329 
       11300.00          0.0635          0.4402 
       11350.00          0.0686          0.4471 
       11400.00          0.0811          0.4448 
       11450.00          0.0961          0.4409 
       11500.00          0.0787          0.4413 
       11550.00          0.0348          0.4505 
       11600.00          0.0445          0.4528 
       11650.00          0.0585          0.4451 
       11700.00          0.0536          0.4510 
       11750.00          0.0608          0.4560 
       11800.00          0.0403          0.4502 
       11850.00          0.0558          0.4410 
       11900.00          0.0415          0.4539 
       11950.00          0.1089          0.4251 
       12000.00          0.1085          0.4397 
       12050.00          0.1394          0.4364 
       12100.00          0.0922          0.4442 
       12150.00          0.0915          0.4248 
       12200.00          0.1273          0.4262 
       12250.00          0.0841          0.4451 
       12300.00          0.0704          0.4404 
       12350.00          0.1035          0.4369 
       12400.00          0.0809          0.4338 
       12450.00          0.1006          0.4449 
       12500.00          0.0789          0.4494 
       12550.00          0.0988          0.4373 
       12600.00          0.1162          0.4184 
       12650.00          0.0658          0.4352 
       12700.00          0.0710          0.4378 
       12750.00          0.0549          0.4442 
       12800.00          0.0567          0.4365 
       12850.00          0.0487          0.4447 
       12900.00          0.0658          0.4405 
       12950.00          0.0505          0.4583 
       13000.00          0.0671          0.4377 
       13050.00          0.0700          0.4514 
       13100.00          0.0691          0.4431 
       13150.00          0.0831          0.4503 
       13200.00          0.0837          0.4350 
       13250.00          0.0729          0.4400 
       13300.00          0.0295          0.4502 
       13350.00          0.0577          0.4467 
       13400.00          0.0729          0.4357 
       13450.00          0.0640          0.4513 
       13500.00          0.0565          0.4471 
       13550.00          0.1233          0.4243 
       13600.00          0.1010          0.4334 
       13650.00          0.0838          0.4404 
       13700.00          0.0759          0.4427 
       13750.00          0.0467          0.4426 
       13800.00          0.0673          0.4410 
       13850.00          0.0337          0.4397 
       13900.00          0.0392          0.4382 
       13950.00          0.0714          0.4544 
       14000.00          0.1107          0.4419 
       14050.00          0.0844          0.4437 
       14100.00          0.0452          0.4444 
       14150.00          0.1102          0.4326 
       14200.00          0.1611          0.4076 
       14250.00          0.1396          0.4176 
       14300.00          0.0726          0.4383 
       14350.00          0.0545          0.4455 
       14400.00          0.0572          0.4367 
       14450.00          0.0531          0.4511 
       14500.00          0.0738          0.4475 
       14550.00          0.0514          0.4345 
       14600.00          0.0460          0.4521 
       14650.00          0.0480          0.4453 
       14700.00          0.0557          0.4703 
       14750.00          0.0801          0.4481 
       14800.00          0.0511          0.4482 
       14850.00          0.0382          0.4533 
       14900.00          0.0689          0.4491 
       14950.00          0.0818          0.4385 
       15000.00          0.0694          0.4414 
       15050.00          0.0729          0.4479 
       15100.00          0.0899          0.4315 
       15150.00          0.0598          0.4396 
       15200.00          0.0499          0.4467 
       15250.00          0.1139          0.4309 
       15300.00          0.0996          0.4372 
       15350.00          0.0694          0.4443 
       15400.00          0.0491          0.4582 
       15450.00          0.0677          0.4441 
       15500.00          0.1265          0.4104 
       15550.00          0.1246          0.4289 
       15600.00          0.0454          0.4492 
       15650.00          0.0656          0.4507 
       15700.00          0.0727          0.4431 
       15750.00          0.0606          0.4429 
       15800.00          0.0589          0.4539 
       15850.00          0.0499          0.4432 
       15900.00          0.0581          0.4473 
       15950.00          0.0483          0.4456 
       16000.00          0.0766          0.4316 
       16050.00          0.0597          0.4442 
       16100.00          0.0581          0.4384 
       16150.00          0.0677          0.4385 
       16200.00          0.0460          0.4419 
       16250.00          0.0746          0.4346 
       16300.00          0.0626          0.4340 
       16350.00          0.0581          0.4415 
       16400.00          0.0517          0.4463 
       16450.00          0.0859          0.4485 
       16500.00          0.0914          0.4403 
       16550.00          0.0674          0.4311 
       16600.00          0.0633          0.4443 
       16650.00          0.0888          0.4433 
       16700.00          0.0674          0.4488 
       16750.00          0.0695          0.4477 
       16800.00          0.0993          0.4301 
       16850.00          0.0792          0.4433 
       16900.00          0.0627          0.4431 
       16950.00          0.1064          0.4368 
       17000.00          0.0405          0.4401 
       17050.00          0.0686          0.4413 
       17100.00          0.0519          0.4487 
       17150.00          0.0867          0.4391 
       17200.00          0.0607          0.4390 
       17250.00          0.0764          0.4466 
       17300.00          0.1314          0.4227 
       17350.00          0.1199          0.4346 
       17400.00          0.1274          0.4178 
       17450.00          0.0478          0.4489 
       17500.00          0.0849          0.4398 
       17550.00          0.0542          0.4403 
       17600.00          0.0894          0.4425 
       17650.00          0.0840          0.4521 
       17700.00          0.0946          0.4365 
       17750.00          0.0809          0.4545 
       17800.00          0.1238          0.4653 
       17850.00          0.0791          0.4451 
       17900.00          0.1311          0.4236 
       17950.00          0.1052          0.4340 
       18000.00          0.0753          0.4361 
       18050.00          0.0650          0.4458 
       18100.00          0.1221          0.4268 
       18150.00          0.0590          0.4381 
       18200.00          0.0931          0.4433 
       18250.00          0.0950          0.4602 
       18300.00          0.0997          0.4354 
       18350.00          0.0525          0.4544 
       18400.00          0.0706          0.4352 
       18450.00          0.0850          0.4443 
       18500.00          0.1037          0.4336 
       18550.00          0.0789          0.4426 
       18600.00          0.0275          0.4527 
       18650.00          0.0405          0.4442 
       18700.00          0.0795          0.4421 
       18750.00          0.0375          0.4375 
       18800.00          0.0650          0.4436 
       18850.00          0.0685          0.4403 
       18900.00          0.0785          0.4376 
       18950.00          0.0578          0.4447 
       19000.00          0.0541          0.4454 
       19050.00          0.0655          0.4364 
       19100.00          0.0355          0.4444 
       19150.00          0.0898          0.4377 
       19200.00          0.0820          0.4299 
       19250.00          0.0547          0.4448 
       19300.00          0.0431          0.4552 
       19350.00          0.0599          0.4520 
       19400.00          0.0665          0.4469 
       19450.00          0.0623          0.4437 
       19500.00          0.0662          0.4382 
       19550.00          0.0523          0.4357 
       19600.00          0.0977          0.4373 
       19650.00          0.0850          0.4340 
       19700.00          0.0612          0.4414 
       19750.00          0.0707          0.4331 
       19800.00          0.0594          0.4404 
       19850.00          0.0660          0.4407 
       19900.00          0.0660          0.4497 
       19950.00          0.0503          0.4466 
       20000.00          0.0187          0.4541 
       20050.00          0.1259          0.4314 
       20100.00          0.1177          0.4160 
       20150.00          0.1196          0.4225 
       20200.00          0.1343          0.4300 
       20250.00          0.0991          0.4465 
       20300.00          0.0635          0.4548 
