@    xaxis  label "t"
@    yaxis  label "RMSD (nm)"
           0.00          0.0002          0.4517 
          50.00          0.1663          0.4777 
         100.00          0.2646          0.5252 
         150.00          0.3110          0.5460 
         200.00          0.3684          0.4671 
         250.00          0.3298          0.4209 
         300.00          0.2861          0.4271 
         350.00          0.2997          0.4888 
         400.00          0.3159          0.4366 
         450.00          0.3696          0.4188 
         500.00          0.3044          0.4334 
         550.00          0.2800          0.4132 
         600.00          0.2900          0.5128 
         650.00          0.3634          0.4986 
         700.00          0.3978          0.4424 
         750.00          0.4059          0.4624 
         800.00          0.4533          0.4227 
         850.00          0.4352          0.4771 
         900.00          0.4253          0.5151 
         950.00          0.4428          0.5283 
        1000.00          0.4442          0.5562 
        1050.00          0.4769          0.4920 
        1100.00          0.4589          0.5478 
        1150.00          0.4980          0.5942 
        1200.00          0.4468          0.5882 
        1250.00          0.4472          0.5958 
        1300.00          0.4339          0.5121 
        1350.00          0.4206          0.4730 
        1400.00          0.4272          0.4481 
        1450.00          0.4243          0.4195 
        1500.00          0.4469          0.4367 
        1550.00          0.4224          0.5016 
        1600.00          0.4469          0.5868 
        1650.00          0.4038          0.5617 
        1700.00          0.4572          0.5586 
        1750.00          0.4205          0.4999 
        1800.00          0.4193          0.4733 
        1850.00          0.4329          0.3596 
        1900.00          0.4071          0.4211 
        1950.00          0.4284          0.3362 
        2000.00          0.4409          0.3924 
        2050.00          0.4287          0.4486 
        2100.00          0.4567          0.4584 
        2150.00          0.3909          0.4612 
        2200.00          0.4089          0.4732 
        2250.00          0.4225          0.4974 
        2300.00          0.4487          0.6039 
        2350.00          0.4125          0.5749 
        2400.00          0.4405          0.4989 
        2450.00          0.4164          0.4976 
        2500.00          0.3874          0.4145 
        2550.00          0.4563          0.3520 
        2600.00          0.3974          0.4351 
        2650.00          0.3690          0.4156 
        2700.00          0.3847          0.4214 
        2750.00          0.3755          0.4121 
        2800.00          0.4124          0.4258 
        2850.00          0.3869          0.4210 
        2900.00          0.3799          0.4342 
        2950.00          0.3621          0.4087 
        3000.00          0.3634          0.4855 
        3050.00          0.3207          0.4424 
        3100.00          0.3537          0.4894 
        3150.00          0.3487          0.4956 
        3200.00          0.4055          0.4821 
        3250.00          0.3592          0.4465 
        3300.00          0.4202          0.5228 
        3350.00          0.4018          0.6064 
        3400.00          0.4228          0.5498 
        3450.00          0.4203          0.5565 
        3500.00          0.4050          0.5553 
        3550.00          0.4464          0.6384 
        3600.00          0.4264          0.4809 
        3650.00          0.3677          0.4573 
        3700.00          0.3992          0.4688 
        3750.00          0.4189          0.4715 
        3800.00          0.3949          0.5075 
        3850.00          0.4423          0.6532 
        3900.00          0.4576          0.6213 
        3950.00          0.4416          0.6644 
        4000.00          0.5036          0.7128 
        4050.00          0.4302          0.6400 
        4100.00          0.4607          0.5699 
        4150.00          0.4816          0.6013 
        4200.00          0.4257          0.6308 
        4250.00          0.4379          0.6588 
        4300.00          0.4520          0.6451 
        4350.00          0.4537          0.6191 
        4400.00          0.4681          0.7097 
        4450.00          0.5140          0.7278 
        4500.00          0.5221          0.7438 
        4550.00          0.4740          0.7182 
        4600.00          0.4792          0.7197 
        4650.00          0.4725          0.6889 
        4700.00          0.5159          0.7320 
        4750.00          0.5052          0.7055 
        4800.00          0.4715          0.6335 
        4850.00          0.4054          0.6539 
        4900.00          0.4315          0.5711 
        4950.00          0.4045          0.5715 
        5000.00          0.4479          0.5714 
        5050.00          0.4148          0.5653 
        5100.00          0.4459          0.5887 
        5150.00          0.4313          0.6496 
        5200.00          0.4165          0.6259 
        5250.00          0.4429          0.5282 
        5300.00          0.3634          0.4875 
        5350.00          0.3919          0.3843 
        5400.00          0.4159          0.4701 
        5450.00          0.3920          0.4950 
        5500.00          0.4404          0.5577 
        5550.00          0.4073          0.4861 
        5600.00          0.3926          0.4460 
        5650.00          0.3767          0.4883 
        5700.00          0.3904          0.4605 
        5750.00          0.4117          0.4925 
        5800.00          0.3423          0.5891 
        5850.00          0.3829          0.5873 
        5900.00          0.4089          0.6291 
        5950.00          0.3850          0.6222 
        6000.00          0.4310          0.6799 
        6050.00          0.4103          0.6459 
        6100.00          0.4481          0.6849 
        6150.00          0.3651          0.6400 
        6200.00          0.3955          0.6194 
        6250.00          0.3820          0.5465 
        6300.00          0.3984          0.5578 
        6350.00          0.3476          0.5035 
        6400.00          0.3886          0.5121 
        6450.00          0.4424          0.5369 
        6500.00          0.4403          0.5854 
        6550.00          0.4363          0.4412 
        6600.00          0.4365          0.4679 
        6650.00          0.4581          0.3711 
        6700.00          0.4572          0.3161 
        6750.00          0.4218          0.4090 
        6800.00          0.3726          0.4238 
        6850.00          0.4029          0.4060 
        6900.00          0.4342          0.4874 
        6950.00          0.4537          0.5601 
        7000.00          0.3862          0.5236 
        7050.00          0.3448          0.5305 
        7100.00          0.3864          0.4416 
        7150.00          0.4138          0.4339 
        7200.00          0.4024          0.4075 
        7250.00          0.3684          0.4875 
        7300.00          0.3764          0.4559 
        7350.00          0.3527          0.4705 
        7400.00          0.3689          0.4926 
        7450.00          0.3434          0.4826 
        7500.00          0.3733          0.4538 
        7550.00          0.3974          0.4398 
        7600.00          0.3792          0.4504 
        7650.00          0.3727          0.4499 
        7700.00          0.3690          0.4387 
        7750.00          0.3990          0.4398 
        7800.00          0.4370          0.3689 
        7850.00          0.4457          0.3783 
        7900.00          0.4129          0.4011 
        7950.00          0.4037          0.3775 
        8000.00          0.4165          0.4350 
        8050.00          0.3878          0.4172 
        8100.00          0.3694          0.4221 
        8150.00          0.3919          0.3882 
        8200.00          0.3899          0.3911 
        8250.00          0.3285          0.4734 
        8300.00          0.3959          0.4326 
        8350.00          0.3894          0.4251 
        8400.00          0.3867          0.3415 
        8450.00          0.3938          0.4255 
        8500.00          0.4365          0.5477 
        8550.00          0.5245          0.6549 
        8600.00          0.4373          0.6560 
        8650.00          0.5076          0.6868 
        8700.00          0.5299          0.7008 
        8750.00          0.4773          0.6613 
        8800.00          0.4418          0.6301 
        8850.00          0.4961          0.6218 
        8900.00          0.4519          0.5427 
        8950.00          0.3942          0.4873 
        9000.00          0.3382          0.5033 
        9050.00          0.3505          0.5867 
        9100.00          0.3133          0.3684 
        9150.00          0.3712          0.3539 
        9200.00          0.3170          0.4067 
        9250.00          0.3360          0.3460 
        9300.00          0.4159          0.2482 
        9350.00          0.4006          0.3172 
        9400.00          0.3617          0.3276 
        9450.00          0.4323          0.3398 
        9500.00          0.4015          0.2574 
        9550.00          0.4399          0.2898 
        9600.00          0.3930          0.3941 
        9650.00          0.4213          0.3683 
        9700.00          0.4360          0.2979 
        9750.00          0.3890          0.3388 
        9800.00          0.3839          0.4056 
        9850.00          0.3827          0.4240 
        9900.00          0.4105          0.3922 
        9950.00          0.4114          0.4438 
       10000.00          0.4557          0.4897 
       10050.00          0.4040          0.4645 
       10100.00          0.3724          0.5533 
       10150.00          0.2989          0.4919 
       10200.00          0.2984          0.4581 
       10250.00          0.4225          0.4906 
       10300.00          0.4670          0.6014 
       10350.00          0.4394          0.5113 
       10400.00          0.4487          0.5639 
       10450.00          0.4677          0.6708 
       10500.00          0.4436          0.5837 
       10550.00          0.4187          0.5250 
       10600.00          0.4541          0.4548 
       10650.00          0.4294          0.5423 
       10700.00          0.3906          0.4714 
       10750.00          0.4013          0.5264 
       10800.00          0.4234          0.5358 
       10850.00          0.4402          0.4751 
       10900.00          0.3957          0.4523 
       10950.00          0.3965          0.3926 
       11000.00          0.3936          0.4017 
       11050.00          0.4436          0.3899 
       11100.00          0.4435          0.2998 
       11150.00          0.3917          0.3658 
       11200.00          0.3848          0.4282 
       11250.00          0.3804          0.3997 
       11300.00          0.3484          0.4177 
       11350.00          0.3316          0.3843 
       11400.00          0.3299          0.4234 
       11450.00          0.3802          0.4453 
       11500.00          0.4070          0.5077 
       11550.00          0.4447          0.6128 
       11600.00          0.3992          0.5338 
       11650.00          0.4070          0.5323 
       11700.00          0.3988          0.5042 
       11750.00          0.4059          0.4784 
       11800.00          0.4010          0.5017 
       11850.00          0.3333          0.5185 
       11900.00          0.3226          0.5449 
       11950.00          0.3280          0.4674 
       12000.00          0.3848          0.4600 
       12050.00          0.3745          0.4192 
       12100.00          0.3776          0.4110 
       12150.00          0.3397          0.4048 
       12200.00          0.3434          0.5209 
       12250.00          0.3325          0.5144 
       12300.00          0.3307          0.5399 
       12350.00          0.3555          0.4503 
       12400.00          0.3863          0.3990 
       12450.00          0.3935          0.3575 
       12500.00          0.4487          0.3488 
       12550.00          0.4277          0.2707 
       12600.00          0.4774          0.2905 
       12650.00          0.4693          0.3346 
       12700.00          0.4422          0.3107 
       12750.00          0.4759          0.2890 
       12800.00          0.4650          0.2769 
       12850.00          0.4614          0.3011 
       12900.00          0.4302          0.3855 
       12950.00          0.4949          0.3507 
       13000.00          0.4649          0.3812 
       13050.00          0.4852          0.3731 
       13100.00          0.4345          0.4255 
       13150.00          0.4121          0.3838 
       13200.00          0.3963          0.4037 
       13250.00          0.3850          0.4071 
       13300.00          0.3720          0.3820 
       13350.00          0.3661          0.4299 
       13400.00          0.3649          0.4316 
       13450.00          0.3576          0.4692 
       13500.00          0.4150          0.5273 
       13550.00          0.3719          0.4899 
       13600.00          0.4200          0.5885 
       13650.00          0.3552          0.5073 
       13700.00          0.4081          0.4458 
       13750.00          0.4600          0.5416 
       13800.00          0.4296          0.5338 
       13850.00          0.4994          0.6297 
       13900.00          0.4236          0.5817 
       13950.00          0.4156          0.6302 
       14000.00          0.4263          0.6489 
       14050.00          0.4479          0.6464 
       14100.00          0.4876          0.6819 
       14150.00          0.4699          0.6612 
       14200.00          0.3879          0.5896 
       14250.00          0.3666          0.6129 
       14300.00          0.3588          0.5774 
       14350.00          0.3630          0.5710 
       14400.00          0.3629          0.5457 
       14450.00          0.4542          0.6533 
       14500.00          0.4882          0.6856 
       14550.00          0.5048          0.7007 
       14600.00          0.4634          0.6707 
       14650.00          0.5013          0.6714 
       14700.00          0.4231          0.6099 
       14750.00          0.4451          0.5511 
       14800.00          0.4551          0.5496 
       14850.00          0.4055          0.4626 
       14900.00          0.4158          0.4641 
       14950.00          0.3747          0.5117 
       15000.00          0.3721          0.5168 
       15050.00          0.3769          0.4668 
       15100.00          0.3404          0.4757 
       15150.00          0.3736          0.5090 
       15200.00          0.4332          0.5904 
       15250.00          0.4546          0.5847 
       15300.00          0.4378          0.6237 
       15350.00          0.4264          0.6558 
       15400.00          0.4851          0.7191 
       15450.00          0.4863          0.7147 
       15500.00          0.4765          0.7068 
       15550.00          0.4886          0.6919 
       15600.00          0.4540          0.6763 
       15650.00          0.4921          0.7210 
       15700.00          0.4503          0.6710 
       15750.00          0.4441          0.6506 
       15800.00          0.4680          0.6098 
       15850.00          0.4139          0.6186 
       15900.00          0.4610          0.6737 
       15950.00          0.4875          0.6925 
       16000.00          0.5252          0.6940 
       16050.00          0.5101          0.7008 
       16100.00          0.5317          0.7342 
       16150.00          0.4970          0.6773 
       16200.00          0.5134          0.6888 
       16250.00          0.4689          0.6701 
       16300.00          0.4934          0.6752 
       16350.00          0.5104          0.7048 
       16400.00          0.4857          0.6721 
       16450.00          0.4540          0.6106 
       16500.00          0.5285          0.7110 
       16550.00          0.4964          0.6608 
       16600.00          0.4810          0.6784 
       16650.00          0.4920          0.6293 
       16700.00          0.4325          0.6027 
       16750.00          0.4562          0.6710 
       16800.00          0.4946          0.6636 
       16850.00          0.4253          0.6541 
       16900.00          0.4851          0.6770 
       16950.00          0.5036          0.7078 
       17000.00          0.4770          0.6362 
       17050.00          0.4038          0.6222 
       17100.00          0.3889          0.5941 
       17150.00          0.3205          0.4845 
       17200.00          0.3323          0.4622 
       17250.00          0.3304          0.4309 
       17300.00          0.3443          0.4615 
       17350.00          0.3627          0.4568 
       17400.00          0.3667          0.5233 
       17450.00          0.3536          0.4555 
       17500.00          0.3442          0.4792 
       17550.00          0.4058          0.5347 
       17600.00          0.4263          0.5912 
       17650.00          0.3741          0.5385 
       17700.00          0.3934          0.5728 
       17750.00          0.3707          0.5469 
       17800.00          0.4179          0.5927 
       17850.00          0.4177          0.5951 
       17900.00          0.4592          0.7000 
       17950.00          0.3892          0.6182 
       18000.00          0.3743          0.5931 
       18050.00          0.3531          0.5416 
       18100.00          0.4693          0.6748 
       18150.00          0.3982          0.5548 
       18200.00          0.4001          0.5582 
       18250.00          0.3540          0.5474 
       18300.00          0.4488          0.5923 
       18350.00          0.3914          0.5821 
       18400.00          0.3997          0.5884 
       18450.00          0.3698          0.5396 
       18500.00          0.3502          0.5332 
       18550.00          0.3676          0.5282 
       18600.00          0.3633          0.5377 
       18650.00          0.3719          0.5588 
       18700.00          0.3730          0.5626 
       18750.00          0.3631          0.5965 
       18800.00          0.3795          0.5826 
       18850.00          0.4797          0.6920 
       18900.00          0.4690          0.6642 
       18950.00          0.3904          0.6268 
       19000.00          0.4820          0.7024 
       19050.00          0.3757          0.5932 
       19100.00          0.4461          0.6223 
       19150.00          0.4283          0.5798 
       19200.00          0.4947          0.6699 
       19250.00          0.4307          0.6582 
       19300.00          0.4493          0.6245 
       19350.00          0.4336          0.6178 
       19400.00          0.4335          0.5864 
       19450.00          0.4281          0.5367 
       19500.00          0.4396          0.5758 
       19550.00          0.3931          0.5445 
       19600.00          0.4016          0.6267 
       19650.00          0.3797          0.5960 
       19700.00          0.4194          0.6663 
       19750.00          0.4511          0.6374 
       19800.00          0.4575          0.5838 
       19850.00          0.4325          0.5647 
       19900.00          0.4729          0.5391 
       19950.00          0.4411          0.4698 
       20000.00          0.3949          0.4668 
       20050.00          0.4175          0.3565 
       20100.00          0.3984          0.4135 
       20150.00          0.4026          0.4239 
       20200.00          0.3851          0.4053 
       20250.00          0.4023          0.5221 
       20300.00          0.3926          0.5087 
